 LBCO   Chi2:240.2778  CELL:    3.89090   3.89090   3.89090   90.0000   90.0000   90.0000   SPGR: P m -3 m               TEMP:      0.00
  1   3092     1.49400     1.49400     0.00000     0.00000     0.00000    0
    28     0     2
       0.00000      10.00000
     164.85001     180.00000
 2Theta	Yobs	Ycal	Yobs-Ycal	Backg	Posr	(hkl)	K
     10.3000	  190.00	    0.00	 -693.00	    0.00
     10.3500	  182.00	    0.00	 -701.00	    0.00
     10.4000	  166.00	    0.00	 -717.00	    0.00
     10.4500	  203.00	    0.00	 -680.00	    0.00
     10.5000	  156.00	    0.00	 -727.00	    0.00
     10.5500	  190.00	    0.00	 -693.00	    0.00
     10.6000	  175.00	    0.00	 -708.00	    0.00
     10.6500	  161.00	    0.00	 -722.00	    0.00
     10.7000	  187.00	    0.00	 -696.00	    0.00
     10.7500	  166.00	    0.00	 -717.00	    0.00
     10.8000	  171.00	    0.00	 -712.00	    0.00
     10.8500	  177.00	    0.00	 -706.00	    0.00
     10.9000	  159.00	    0.00	 -724.00	    0.00
     10.9500	  184.00	    0.00	 -699.00	    0.00
     11.0000	  160.00	    0.00	 -723.00	    0.00
     11.0500	  182.00	    0.00	 -701.00	    0.00
     11.1000	  167.00	    0.00	 -716.00	    0.00
     11.1500	  169.00	    0.00	 -714.00	    0.00
     11.2000	  186.00	    0.00	 -697.00	    0.00
     11.2500	  167.00	    0.00	 -716.00	    0.00
     11.3000	  169.00	    0.00	 -714.00	    0.00
     11.3500	  159.00	    0.00	 -724.00	    0.00
     11.4000	  170.00	    0.00	 -713.00	    0.00
     11.4500	  179.00	    0.00	 -704.00	    0.00
     11.5000	  178.00	    0.00	 -705.00	    0.00
     11.5500	  188.00	    0.00	 -695.00	    0.00
     11.6000	  176.00	    0.00	 -707.00	    0.00
     11.6500	  196.00	    0.00	 -687.00	    0.00
     11.7000	  182.00	    0.00	 -701.00	    0.00
     11.7500	  183.00	    0.00	 -700.00	    0.00
     11.8000	  195.00	    0.00	 -688.00	    0.00
     11.8500	  144.00	    0.00	 -739.00	    0.00
     11.9000	  178.00	    0.00	 -705.00	    0.00
     11.9500	  175.00	    0.00	 -708.00	    0.00
     12.0000	  200.00	    0.00	 -683.00	    0.00
     12.0500	  157.00	    0.00	 -726.00	    0.00
     12.1000	  195.00	    0.00	 -688.00	    0.00
     12.1500	  164.00	    0.00	 -719.00	    0.00
     12.2000	  188.00	    0.00	 -695.00	    0.00
     12.2500	  168.00	    0.00	 -715.00	    0.00
     12.3000	  191.00	    0.00	 -692.00	    0.00
     12.3500	  178.00	    0.00	 -705.00	    0.00
     12.4000	  182.00	    0.00	 -701.00	    0.00
     12.4500	  174.00	    0.00	 -709.00	    0.00
     12.5000	  171.00	    0.00	 -712.00	    0.00
     12.5500	  174.00	    0.00	 -709.00	    0.00
     12.6000	  184.00	    0.00	 -699.00	    0.00
     12.6500	  164.00	    0.00	 -719.00	    0.00
     12.7000	  166.00	    0.00	 -717.00	    0.00
     12.7500	  177.00	    0.00	 -706.00	    0.00
     12.8000	  174.00	    0.00	 -709.00	    0.00
     12.8500	  187.00	    0.00	 -696.00	    0.00
     12.9000	  183.00	    0.00	 -700.00	    0.00
     12.9500	  187.00	    0.00	 -696.00	    0.00
     13.0000	  175.00	    0.00	 -708.00	    0.00
     13.0500	  165.00	    0.00	 -718.00	    0.00
     13.1000	  177.00	    0.00	 -706.00	    0.00
     13.1500	  182.00	    0.00	 -701.00	    0.00
     13.2000	  195.00	    0.00	 -688.00	    0.00
     13.2500	  163.00	    0.00	 -720.00	    0.00
     13.3000	  180.00	    0.00	 -703.00	    0.00
     13.3500	  171.00	    0.00	 -712.00	    0.00
     13.4000	  182.00	    0.00	 -701.00	    0.00
     13.4500	  179.00	    0.00	 -704.00	    0.00
     13.5000	  161.00	    0.00	 -722.00	    0.00
     13.5500	  156.00	    0.00	 -727.00	    0.00
     13.6000	  197.00	    0.00	 -686.00	    0.00
     13.6500	  167.00	    0.00	 -716.00	    0.00
     13.7000	  180.00	    0.00	 -703.00	    0.00
     13.7500	  182.00	    0.00	 -701.00	    0.00
     13.8000	  176.00	    0.00	 -707.00	    0.00
     13.8500	  153.00	    0.00	 -730.00	    0.00
     13.9000	  179.00	    0.00	 -704.00	    0.00
     13.9500	  156.00	    0.00	 -727.00	    0.00
     14.0000	  187.00	    0.00	 -696.00	    0.00
     14.0500	  170.00	    0.00	 -713.00	    0.00
     14.1000	  185.00	    0.00	 -698.00	    0.00
     14.1500	  180.00	    0.00	 -703.00	    0.00
     14.2000	  167.00	    0.00	 -716.00	    0.00
     14.2500	  159.00	    0.00	 -724.00	    0.00
     14.3000	  152.00	    0.00	 -731.00	    0.00
     14.3500	  173.00	    0.00	 -710.00	    0.00
     14.4000	  169.00	    0.00	 -714.00	    0.00
     14.4500	  185.00	    0.00	 -698.00	    0.00
     14.5000	  168.00	    0.00	 -715.00	    0.00
     14.5500	  193.00	    0.00	 -690.00	    0.00
     14.6000	  177.00	    0.00	 -706.00	    0.00
     14.6500	  161.00	    0.00	 -722.00	    0.00
     14.7000	  180.00	    0.00	 -703.00	    0.00
     14.7500	  165.00	    0.00	 -718.00	    0.00
     14.8000	  178.00	    0.00	 -705.00	    0.00
     14.8500	  157.00	    0.00	 -726.00	    0.00
     14.9000	  163.00	    0.00	 -720.00	    0.00
     14.9500	  143.00	    0.00	 -740.00	    0.00
     15.0000	  155.00	    0.00	 -728.00	    0.00
     15.0500	  168.00	    0.00	 -715.00	    0.00
     15.1000	  160.00	    0.00	 -723.00	    0.00
     15.1500	  155.00	    0.00	 -728.00	    0.00
     15.2000	  203.00	    0.00	 -680.00	    0.00
     15.2500	  164.00	    0.00	 -719.00	    0.00
     15.3000	  158.00	    0.00	 -725.00	    0.00
     15.3500	  152.00	    0.00	 -731.00	    0.00
     15.4000	  173.00	    0.00	 -710.00	    0.00
     15.4500	  160.00	    0.00	 -723.00	    0.00
     15.5000	  172.00	    0.00	 -711.00	    0.00
     15.5500	  164.00	    0.00	 -719.00	    0.00
     15.6000	  163.00	    0.00	 -720.00	    0.00
     15.6500	  173.00	    0.00	 -710.00	    0.00
     15.7000	  177.00	    0.00	 -706.00	    0.00
     15.7500	  184.00	    0.00	 -699.00	    0.00
     15.8000	  173.00	    0.00	 -710.00	    0.00
     15.8500	  182.00	    0.00	 -701.00	    0.00
     15.9000	  156.00	    0.00	 -727.00	    0.00
     15.9500	  152.00	    0.00	 -731.00	    0.00
     16.0000	  201.00	    0.00	 -682.00	    0.00
     16.0500	  156.00	    0.00	 -727.00	    0.00
     16.1000	  169.00	    0.00	 -714.00	    0.00
     16.1500	  178.00	    0.00	 -705.00	    0.00
     16.2000	  150.00	    0.00	 -733.00	    0.00
     16.2500	  163.00	    0.00	 -720.00	    0.00
     16.3000	  165.00	    0.00	 -718.00	    0.00
     16.3500	  160.00	    0.00	 -723.00	    0.00
     16.4000	  171.00	    0.00	 -712.00	    0.00
     16.4500	  168.00	    0.00	 -715.00	    0.00
     16.5000	  159.00	    0.00	 -724.00	    0.00
     16.5500	  166.00	    0.00	 -717.00	    0.00
     16.6000	  156.00	    0.00	 -727.00	    0.00
     16.6500	  156.00	    0.00	 -727.00	    0.00
     16.7000	  154.00	    0.00	 -729.00	    0.00
     16.7500	  173.00	    0.00	 -710.00	    0.00
     16.8000	  173.00	    0.00	 -710.00	    0.00
     16.8500	  161.00	    0.00	 -722.00	    0.00
     16.9000	  177.00	    0.00	 -706.00	    0.00
     16.9500	  159.00	    0.00	 -724.00	    0.00
     17.0000	  162.00	    0.00	 -721.00	    0.00
     17.0500	  166.00	    0.00	 -717.00	    0.00
     17.1000	  167.00	    0.00	 -716.00	    0.00
     17.1500	  166.00	    0.00	 -717.00	    0.00
     17.2000	  168.00	    0.00	 -715.00	    0.00
     17.2500	  188.00	    0.00	 -695.00	    0.00
     17.3000	  165.00	    0.00	 -718.00	    0.00
     17.3500	  171.00	    0.00	 -712.00	    0.00
     17.4000	  171.00	    0.00	 -712.00	    0.00
     17.4500	  162.00	    0.00	 -721.00	    0.00
     17.5000	  161.00	    0.00	 -722.00	    0.00
     17.5500	  177.00	    0.00	 -706.00	    0.00
     17.6000	  176.00	    0.00	 -707.00	    0.00
     17.6500	  175.00	    0.00	 -708.00	    0.00
     17.7000	  140.00	    0.00	 -743.00	    0.00
     17.7500	  177.00	    0.00	 -706.00	    0.00
     17.8000	  150.00	    0.00	 -733.00	    0.00
     17.8500	  154.00	    0.00	 -729.00	    0.00
     17.9000	  138.00	    0.00	 -745.00	    0.00
     17.9500	  161.00	    0.00	 -722.00	    0.00
     18.0000	  171.00	    0.00	 -712.00	    0.00
     18.0500	  144.00	    0.00	 -739.00	    0.00
     18.1000	  148.00	    0.00	 -735.00	    0.00
     18.1500	  169.00	    0.00	 -714.00	    0.00
     18.2000	  162.00	    0.00	 -721.00	    0.00
     18.2500	  171.00	    0.00	 -712.00	    0.00
     18.3000	  155.00	    0.00	 -728.00	    0.00
     18.3500	  143.00	    0.00	 -740.00	    0.00
     18.4000	  162.00	    0.00	 -721.00	    0.00
     18.4500	  177.00	    0.00	 -706.00	    0.00
     18.5000	  158.00	    0.00	 -725.00	    0.00
     18.5500	  142.00	    0.00	 -741.00	    0.00
     18.6000	  153.00	    0.00	 -730.00	    0.00
     18.6500	  169.00	    0.00	 -714.00	    0.00
     18.7000	  144.00	    0.00	 -739.00	    0.00
     18.7500	  171.00	    0.00	 -712.00	    0.00
     18.8000	  159.00	    0.00	 -724.00	    0.00
     18.8500	  169.00	    0.00	 -714.00	    0.00
     18.9000	  163.00	    0.00	 -720.00	    0.00
     18.9500	  154.00	    0.00	 -729.00	    0.00
     19.0000	  146.00	    0.00	 -737.00	    0.00
     19.0500	  154.00	    0.00	 -729.00	    0.00
     19.1000	  156.00	    0.00	 -727.00	    0.00
     19.1500	  195.00	    0.00	 -688.00	    0.00
     19.2000	  154.00	    0.00	 -729.00	    0.00
     19.2500	  167.00	    0.00	 -716.00	    0.00
     19.3000	  156.00	    0.00	 -727.00	    0.00
     19.3500	  148.00	    0.00	 -735.00	    0.00
     19.4000	  173.00	    0.00	 -710.00	    0.00
     19.4500	  155.00	    0.00	 -728.00	    0.00
     19.5000	  146.00	    0.00	 -737.00	    0.00
     19.5500	  173.00	    0.00	 -710.00	    0.00
     19.6000	  179.00	    0.00	 -704.00	    0.00
     19.6500	  152.00	    0.00	 -731.00	    0.00
     19.7000	  182.00	    0.00	 -701.00	    0.00
     19.7500	  183.00	    0.00	 -700.00	    0.00
     19.8000	  150.00	    0.00	 -733.00	    0.00
     19.8500	  155.00	    0.00	 -728.00	    0.00
     19.9000	  158.00	    0.00	 -725.00	    0.00
     19.9500	  161.00	    0.00	 -722.00	    0.00
     20.0000	  164.00	    0.00	 -719.00	    0.00
     20.0500	  166.00	    0.00	 -717.00	    0.00
     20.1000	  172.00	    0.00	 -711.00	    0.00
     20.1500	  148.00	    0.00	 -735.00	    0.00
     20.2000	  161.00	    0.00	 -722.00	    0.00
     20.2500	  160.00	    0.00	 -723.00	    0.00
     20.3000	  185.00	    0.00	 -698.00	    0.00
     20.3500	  165.00	    0.14	 -718.14	    0.00
     20.4000	  155.00	    0.14	 -728.14	    0.00
     20.4500	  172.00	    0.15	 -711.15	    0.00
     20.5000	  170.00	    0.16	 -713.16	    0.00
     20.5500	  180.00	    0.17	 -703.17	    0.00
     20.6000	  184.00	    0.18	 -699.18	    0.00
     20.6500	  164.00	    0.19	 -719.19	    0.00
     20.7000	  177.00	    0.21	 -706.21	    0.00
     20.7500	  150.00	    0.22	 -733.22	    0.00
     20.8000	  176.00	    0.24	 -707.24	    0.00
     20.8500	  174.00	    0.26	 -709.26	    0.00
     20.9000	  173.00	    0.28	 -710.28	    0.00
     20.9500	  167.00	    0.30	 -716.30	    0.00
     21.0000	  158.00	    0.33	 -725.33	    0.00
     21.0500	  174.00	    0.36	 -709.36	    0.00
     21.1000	  160.00	    0.39	 -723.39	    0.00
     21.1500	  174.00	    0.43	 -709.43	    0.00
     21.2000	  160.00	    0.48	 -723.48	    0.00
     21.2500	  182.00	    0.53	 -701.53	    0.00
     21.3000	  155.00	    0.59	 -728.59	    0.00
     21.3500	  182.00	    0.67	 -701.67	    0.00
     21.4000	  157.00	    0.76	 -726.76	    0.00
     21.4500	  174.00	    0.86	 -709.86	    0.00
     21.5000	  173.00	    1.00	 -711.00	    0.00
     21.5500	  165.00	    1.19	 -719.19	    0.00
     21.6000	  182.00	    1.48	 -702.48	    0.00
     21.6500	  176.00	    1.97	 -708.97	    0.00
     21.7000	  150.00	    2.87	 -735.87	    0.00
     21.7500	  162.00	    4.57	 -725.57	    0.00
     21.8000	  172.00	    7.61	 -718.61	    0.00
     21.8500	  162.00	   12.64	 -733.64	    0.00
     21.9000	  171.00	   20.16	 -732.16	    0.00
     21.9500	  165.00	   30.13	 -748.13	    0.00
     22.0000	  180.00	   41.62	 -744.62	    0.00
     22.0500	  167.00	   52.63	 -768.63	    0.00
     22.1000	  159.00	   60.33	 -784.33	    0.00
     22.1500	  159.00	   62.05	 -786.05	    0.00
     22.2000	  160.00	   57.07	 -780.07	    0.00
     22.2500	  174.00	   47.33	 -756.33	    0.00
     22.3000	  175.00	   35.76	 -743.76	    0.00
     22.3500	  172.00	   24.86	 -735.86	    0.00
     22.4000	  176.00	   16.07	 -723.07	    0.00
     22.4500	  140.00	    9.83	 -752.83	    0.00
     22.5000	  163.00	    5.88	 -725.88	    0.00
     22.5500	  180.00	    3.59	 -706.59	    0.00
     22.6000	  211.00	    2.35	 -674.35	    0.00
     22.6500	  190.00	    1.69	 -694.69	    0.00
     22.7000	  179.00	    1.32	 -705.32	    0.00
     22.7500	  195.00	    1.09	 -689.09	    0.00
     22.8000	  198.00	    0.93	 -685.93	    0.00
     22.8500	  181.00	    0.81	 -702.81	    0.00
     22.9000	  203.00	    0.71	 -680.71	    0.00
     22.9500	  193.00	    0.63	 -690.63	    0.00
     23.0000	  155.00	    0.56	 -728.56	    0.00
     23.0500	  159.00	    0.50	 -724.50	    0.00
     23.1000	  184.00	    0.45	 -699.45	    0.00
     23.1500	  145.00	    0.41	 -738.41	    0.00
     23.2000	  145.00	    0.38	 -738.38	    0.00
     23.2500	  179.00	    0.34	 -704.34	    0.00
     23.3000	  185.00	    0.31	 -698.31	    0.00
     23.3500	  168.00	    0.29	 -715.29	    0.00
     23.4000	  185.00	    0.27	 -698.27	    0.00
     23.4500	  170.00	    0.25	 -713.25	    0.00
     23.5000	  174.00	    0.23	 -709.23	    0.00
     23.5500	  164.00	    0.21	 -719.21	    0.00
     23.6000	  168.00	    0.20	 -715.20	    0.00
     23.6500	  185.00	    0.19	 -698.19	    0.00
     23.7000	  183.00	    0.18	 -700.18	    0.00
     23.7500	  172.00	    0.17	 -711.17	    0.00
     23.8000	  156.00	    0.16	 -727.16	    0.00
     23.8500	  182.00	    0.15	 -701.15	    0.00
     23.9000	  182.00	    0.14	 -701.14	    0.00
     23.9500	  149.00	    0.13	 -734.13	    0.00
     24.0000	  160.00	    0.00	 -723.00	    0.00
     24.0500	  168.00	    0.00	 -715.00	    0.00
     24.1000	  178.00	    0.00	 -705.00	    0.00
     24.1500	  169.00	    0.00	 -714.00	    0.00
     24.2000	  172.00	    0.00	 -711.00	    0.00
     24.2500	  170.00	    0.00	 -713.00	    0.00
     24.3000	  161.00	    0.00	 -722.00	    0.00
     24.3500	  168.00	    0.00	 -715.00	    0.00
     24.4000	  162.00	    0.00	 -721.00	    0.00
     24.4500	  157.00	    0.00	 -726.00	    0.00
     24.5000	  162.00	    0.00	 -721.00	    0.00
     24.5500	  159.00	    0.00	 -724.00	    0.00
     24.6000	  168.00	    0.00	 -715.00	    0.00
     24.6500	  170.00	    0.00	 -713.00	    0.00
     24.7000	  166.00	    0.00	 -717.00	    0.00
     24.7500	  146.00	    0.00	 -737.00	    0.00
     24.8000	  154.00	    0.00	 -729.00	    0.00
     24.8500	  154.00	    0.00	 -729.00	    0.00
     24.9000	  198.00	    0.00	 -685.00	    0.00
     24.9500	  195.00	    0.00	 -688.00	    0.00
     25.0000	  148.00	    0.00	 -735.00	    0.00
     25.0500	  161.00	    0.00	 -722.00	    0.00
     25.1000	  160.00	    0.00	 -723.00	    0.00
     25.1500	  160.00	    0.00	 -723.00	    0.00
     25.2000	  149.00	    0.00	 -734.00	    0.00
     25.2500	  179.00	    0.00	 -704.00	    0.00
     25.3000	  174.00	    0.00	 -709.00	    0.00
     25.3500	  168.00	    0.00	 -715.00	    0.00
     25.4000	  146.00	    0.00	 -737.00	    0.00
     25.4500	  160.00	    0.00	 -723.00	    0.00
     25.5000	  145.00	    0.00	 -738.00	    0.00
     25.5500	  151.00	    0.00	 -732.00	    0.00
     25.6000	  161.00	    0.00	 -722.00	    0.00
     25.6500	  187.00	    0.00	 -696.00	    0.00
     25.7000	  154.00	    0.00	 -729.00	    0.00
     25.7500	  157.00	    0.00	 -726.00	    0.00
     25.8000	  169.00	    0.00	 -714.00	    0.00
     25.8500	  181.00	    0.00	 -702.00	    0.00
     25.9000	  156.00	    0.00	 -727.00	    0.00
     25.9500	  185.00	    0.00	 -698.00	    0.00
     26.0000	  192.00	    0.00	 -691.00	    0.00
     26.0500	  153.00	    0.00	 -730.00	    0.00
     26.1000	  149.00	    0.00	 -734.00	    0.00
     26.1500	  154.00	    0.00	 -729.00	    0.00
     26.2000	  152.00	    0.00	 -731.00	    0.00
     26.2500	  179.00	    0.00	 -704.00	    0.00
     26.3000	  180.00	    0.00	 -703.00	    0.00
     26.3500	  160.00	    0.00	 -723.00	    0.00
     26.4000	  174.00	    0.00	 -709.00	    0.00
     26.4500	  145.00	    0.00	 -738.00	    0.00
     26.5000	  171.00	    0.00	 -712.00	    0.00
     26.5500	  162.00	    0.00	 -721.00	    0.00
     26.6000	  154.00	    0.00	 -729.00	    0.00
     26.6500	  153.00	    0.00	 -730.00	    0.00
     26.7000	  162.00	    0.00	 -721.00	    0.00
     26.7500	  160.00	    0.00	 -723.00	    0.00
     26.8000	  150.00	    0.00	 -733.00	    0.00
     26.8500	  189.00	    0.00	 -694.00	    0.00
     26.9000	  168.00	    0.00	 -715.00	    0.00
     26.9500	  144.00	    0.00	 -739.00	    0.00
     27.0000	  147.00	    0.00	 -736.00	    0.00
     27.0500	  155.00	    0.00	 -728.00	    0.00
     27.1000	  174.00	    0.00	 -709.00	    0.00
     27.1500	  169.00	    0.00	 -714.00	    0.00
     27.2000	  174.00	    0.00	 -709.00	    0.00
     27.2500	  164.00	    0.00	 -719.00	    0.00
     27.3000	  146.00	    0.00	 -737.00	    0.00
     27.3500	  149.00	    0.00	 -734.00	    0.00
     27.4000	  155.00	    0.00	 -728.00	    0.00
     27.4500	  155.00	    0.00	 -728.00	    0.00
     27.5000	  168.00	    0.00	 -715.00	    0.00
     27.5500	  131.00	    0.00	 -752.00	    0.00
     27.6000	  159.00	    0.00	 -724.00	    0.00
     27.6500	  181.00	    0.00	 -702.00	    0.00
     27.7000	  146.00	    0.00	 -737.00	    0.00
     27.7500	  188.00	    0.00	 -695.00	    0.00
     27.8000	  162.00	    0.00	 -721.00	    0.00
     27.8500	  161.00	    0.00	 -722.00	    0.00
     27.9000	  176.00	    0.00	 -707.00	    0.00
     27.9500	  152.00	    0.00	 -731.00	    0.00
     28.0000	  170.00	    0.00	 -713.00	    0.00
     28.0500	  152.00	    0.00	 -731.00	    0.00
     28.1000	  158.00	    0.00	 -725.00	    0.00
     28.1500	  168.00	    0.00	 -715.00	    0.00
     28.2000	  161.00	    0.00	 -722.00	    0.00
     28.2500	  184.00	    0.00	 -699.00	    0.00
     28.3000	  166.00	    0.00	 -717.00	    0.00
     28.3500	  193.00	    0.00	 -690.00	    0.00
     28.4000	  157.00	    0.00	 -726.00	    0.00
     28.4500	  167.00	    0.00	 -716.00	    0.00
     28.5000	  158.00	    0.00	 -725.00	    0.00
     28.5500	  135.00	    0.00	 -748.00	    0.00
     28.6000	  150.00	    0.00	 -733.00	    0.00
     28.6500	  167.00	    0.00	 -716.00	    0.00
     28.7000	  161.00	    0.00	 -722.00	    0.00
     28.7500	  157.00	    0.00	 -726.00	    0.00
     28.8000	  153.00	    0.00	 -730.00	    0.00
     28.8500	  161.00	    0.00	 -722.00	    0.00
     28.9000	  163.00	    0.00	 -720.00	    0.00
     28.9500	  133.00	    0.00	 -750.00	    0.00
     29.0000	  169.00	    0.00	 -714.00	    0.00
     29.0500	  162.00	    0.00	 -721.00	    0.00
     29.1000	  161.00	    0.00	 -722.00	    0.00
     29.1500	  163.00	    0.00	 -720.00	    0.00
     29.2000	  144.00	    0.00	 -739.00	    0.00
     29.2500	  178.00	    0.00	 -705.00	    0.00
     29.3000	  161.00	    0.00	 -722.00	    0.00
     29.3500	  141.00	    0.00	 -742.00	    0.00
     29.4000	  169.00	    0.00	 -714.00	    0.00
     29.4500	  160.00	    0.00	 -723.00	    0.00
     29.5000	  177.00	    0.00	 -706.00	    0.00
     29.5500	  174.00	    0.00	 -709.00	    0.00
     29.6000	  157.00	    0.00	 -726.00	    0.00
     29.6500	  176.00	    0.00	 -707.00	    0.00
     29.7000	  179.00	    0.00	 -704.00	    0.00
     29.7500	  166.00	    0.14	 -717.14	    0.00
     29.8000	  162.00	    0.15	 -721.15	    0.00
     29.8500	  147.00	    0.16	 -736.16	    0.00
     29.9000	  152.00	    0.16	 -731.16	    0.00
     29.9500	  171.00	    0.18	 -712.18	    0.00
     30.0000	  178.00	    0.19	 -705.19	    0.00
     30.0500	  208.00	    0.20	 -675.20	    0.00
     30.1000	  178.00	    0.21	 -705.21	    0.00
     30.1500	  149.00	    0.23	 -734.23	    0.00
     30.2000	  181.00	    0.25	 -702.25	    0.00
     30.2500	  162.00	    0.27	 -721.27	    0.00
     30.3000	  177.00	    0.29	 -706.29	    0.00
     30.3500	  165.00	    0.31	 -718.31	    0.00
     30.4000	  177.00	    0.34	 -706.34	    0.00
     30.4500	  158.00	    0.37	 -725.37	    0.00
     30.5000	  157.00	    0.41	 -726.41	    0.00
     30.5500	  163.00	    0.45	 -720.45	    0.00
     30.6000	  144.00	    0.50	 -739.50	    0.00
     30.6500	  156.00	    0.56	 -727.56	    0.00
     30.7000	  176.00	    0.63	 -707.63	    0.00
     30.7500	  179.00	    0.71	 -704.71	    0.00
     30.8000	  174.00	    0.81	 -709.81	    0.00
     30.8500	  182.00	    0.93	 -701.93	    0.00
     30.9000	  161.00	    1.09	 -723.09	    0.00
     30.9500	  166.00	    1.31	 -718.31	    0.00
     31.0000	  168.00	    1.66	 -716.66	    0.00
     31.0500	  153.00	    2.28	 -732.28	    0.00
     31.1000	  156.00	    3.44	 -730.44	    0.00
     31.1500	  174.00	    5.63	 -714.63	    0.00
     31.2000	  167.00	    9.48	 -725.48	    0.00
     31.2500	  192.00	   15.66	 -706.66	    0.00
     31.3000	  154.00	   24.51	 -753.51	    0.00
     31.3500	  166.00	   35.59	 -752.59	    0.00
     31.4000	  169.00	   47.38	 -761.38	    0.00
     31.4500	  185.00	   57.20	 -755.20	    0.00
     31.5000	  165.00	   61.87	 -779.87	    0.00
     31.5500	  163.00	   59.46	 -779.46	    0.00
     31.6000	  173.00	   51.00	 -761.00	    0.00
     31.6500	  169.00	   39.52	 -753.52	    0.00
     31.7000	  188.00	   27.97	 -722.97	    0.00
     31.7500	  195.00	   18.28	 -706.28	    0.00
     31.8000	  195.00	   11.23	 -699.23	    0.00
     31.8500	  221.00	    6.68	 -668.68	    0.00
     31.9000	  229.00	    4.02	 -658.02	    0.00
     31.9500	  302.00	    2.58	 -583.58	    0.00
     32.0000	  327.00	    1.82	 -557.82	    0.00
     32.0500	  380.00	    1.41	 -504.41	    0.00
     32.1000	  358.00	    1.15	 -526.15	    0.00
     32.1500	  394.00	    0.98	 -489.98	    0.00
     32.2000	  373.00	    0.85	 -510.85	    0.00
     32.2500	  362.00	    0.74	 -521.74	    0.00
     32.3000	  306.00	    0.66	 -577.66	    0.00
     32.3500	  276.00	    0.58	 -607.58	    0.00
     32.4000	  237.00	    0.52	 -646.52	    0.00
     32.4500	  203.00	    0.47	 -680.47	    0.00
     32.5000	  178.00	    0.42	 -705.42	    0.00
     32.5500	  199.00	    0.39	 -684.39	    0.00
     32.6000	  167.00	    0.35	 -716.35	    0.00
     32.6500	  185.00	    0.32	 -698.32	    0.00
     32.7000	  180.00	    0.30	 -703.30	    0.00
     32.7500	  178.00	    0.27	 -705.27	    0.00
     32.8000	  145.00	    0.25	 -738.25	    0.00
     32.8500	  176.00	    0.24	 -707.24	    0.00
     32.9000	  177.00	    0.22	 -706.22	    0.00
     32.9500	  182.00	    0.20	 -701.20	    0.00
     33.0000	  167.00	    0.19	 -716.19	    0.00
     33.0500	  152.00	    0.18	 -731.18	    0.00
     33.1000	  144.00	    0.17	 -739.17	    0.00
     33.1500	  170.00	    0.16	 -713.16	    0.00
     33.2000	  156.00	    0.15	 -727.15	    0.00
     33.2500	  154.00	    0.14	 -729.14	    0.00
     33.3000	  180.00	    0.00	 -703.00	    0.00
     33.3500	  176.00	    0.00	 -707.00	    0.00
     33.4000	  183.00	    0.00	 -700.00	    0.00
     33.4500	  162.00	    0.00	 -721.00	    0.00
     33.5000	  180.00	    0.00	 -703.00	    0.00
     33.5500	  165.00	    0.00	 -718.00	    0.00
     33.6000	  174.00	    0.00	 -709.00	    0.00
     33.6500	  179.00	    0.00	 -704.00	    0.00
     33.7000	  152.00	    0.00	 -731.00	    0.00
     33.7500	  182.00	    0.00	 -701.00	    0.00
     33.8000	  184.00	    0.00	 -699.00	    0.00
     33.8500	  166.00	    0.00	 -717.00	    0.00
     33.9000	  182.00	    0.00	 -701.00	    0.00
     33.9500	  162.00	    0.00	 -721.00	    0.00
     34.0000	  174.00	    0.00	 -709.00	    0.00
     34.0500	  153.00	    0.00	 -730.00	    0.00
     34.1000	  182.00	    0.00	 -701.00	    0.00
     34.1500	  180.00	    0.00	 -703.00	    0.00
     34.2000	  167.00	    0.00	 -716.00	    0.00
     34.2500	  173.00	    0.00	 -710.00	    0.00
     34.3000	  153.00	    0.00	 -730.00	    0.00
     34.3500	  160.00	    0.00	 -723.00	    0.00
     34.4000	  180.00	    0.00	 -703.00	    0.00
     34.4500	  168.00	    0.00	 -715.00	    0.00
     34.5000	  167.00	    0.00	 -716.00	    0.00
     34.5500	  176.00	    0.00	 -707.00	    0.00
     34.6000	  165.00	    0.00	 -718.00	    0.00
     34.6500	  174.00	    0.00	 -709.00	    0.00
     34.7000	  161.00	    0.00	 -722.00	    0.00
     34.7500	  178.00	    0.00	 -705.00	    0.00
     34.8000	  170.00	    0.00	 -713.00	    0.00
     34.8500	  166.00	    0.00	 -717.00	    0.00
     34.9000	  173.00	    0.00	 -710.00	    0.00
     34.9500	  158.00	    0.00	 -725.00	    0.00
     35.0000	  166.00	    0.00	 -717.00	    0.00
     35.0500	  170.00	    0.00	 -713.00	    0.00
     35.1000	  162.00	    0.00	 -721.00	    0.00
     35.1500	  183.00	    0.00	 -700.00	    0.00
     35.2000	  176.00	    0.00	 -707.00	    0.00
     35.2500	  171.00	    0.00	 -712.00	    0.00
     35.3000	  174.00	    0.00	 -709.00	    0.00
     35.3500	  179.00	    0.00	 -704.00	    0.00
     35.4000	  176.00	    0.00	 -707.00	    0.00
     35.4500	  193.00	    0.00	 -690.00	    0.00
     35.5000	  180.00	    0.00	 -703.00	    0.00
     35.5500	  188.00	    0.00	 -695.00	    0.00
     35.6000	  177.00	    0.00	 -706.00	    0.00
     35.6500	  176.00	    0.00	 -707.00	    0.00
     35.7000	  171.00	    0.00	 -712.00	    0.00
     35.7500	  185.00	    0.00	 -698.00	    0.00
     35.8000	  178.00	    0.00	 -705.00	    0.00
     35.8500	  152.00	    0.00	 -731.00	    0.00
     35.9000	  160.00	    0.00	 -723.00	    0.00
     35.9500	  187.00	    0.00	 -696.00	    0.00
     36.0000	  167.00	    0.00	 -716.00	    0.00
     36.0500	  181.00	    0.00	 -702.00	    0.00
     36.1000	  166.00	    0.00	 -717.00	    0.00
     36.1500	  165.00	    0.00	 -718.00	    0.00
     36.2000	  170.00	    0.00	 -713.00	    0.00
     36.2500	  197.00	    0.00	 -686.00	    0.00
     36.3000	  179.00	    0.00	 -704.00	    0.00
     36.3500	  172.00	    0.00	 -711.00	    0.00
     36.4000	  181.00	    0.00	 -702.00	    0.00
     36.4500	  174.00	    0.00	 -709.00	    0.00
     36.5000	  162.00	    0.00	 -721.00	    0.00
     36.5500	  166.00	    0.00	 -717.00	    0.00
     36.6000	  158.00	    0.00	 -725.00	    0.00
     36.6500	  199.00	    0.00	 -684.00	    0.00
     36.7000	  188.00	    0.00	 -695.00	    0.00
     36.7500	  177.00	    0.00	 -706.00	    0.00
     36.8000	  167.00	    0.00	 -716.00	    0.00
     36.8500	  156.00	    0.00	 -727.00	    0.00
     36.9000	  174.00	    0.00	 -709.00	    0.00
     36.9500	  176.00	    0.00	 -707.00	    0.00
     37.0000	  152.00	    0.00	 -731.00	    0.00
     37.0500	  191.00	    0.00	 -692.00	    0.00
     37.1000	  151.00	    0.56	 -732.56	    0.00
     37.1500	  202.00	    0.59	 -681.59	    0.00
     37.2000	  191.00	    0.63	 -692.63	    0.00
     37.2500	  161.00	    0.66	 -722.66	    0.00
     37.3000	  199.00	    0.71	 -684.71	    0.00
     37.3500	  175.00	    0.76	 -708.76	    0.00
     37.4000	  146.00	    0.81	 -737.81	    0.00
     37.4500	  181.00	    0.87	 -702.87	    0.00
     37.5000	  221.00	    0.93	 -662.93	    0.00
     37.5500	  194.00	    1.00	 -690.00	    0.00
     37.6000	  158.00	    1.08	 -726.08	    0.00
     37.6500	  171.00	    1.17	 -713.17	    0.00
     37.7000	  172.00	    1.28	 -712.28	    0.00
     37.7500	  168.00	    1.39	 -716.39	    0.00
     37.8000	  192.00	    1.52	 -692.52	    0.00
     37.8500	  185.00	    1.68	 -699.68	    0.00
     37.9000	  193.00	    1.85	 -691.85	    0.00
     37.9500	  178.00	    2.06	 -707.06	    0.00
     38.0000	  195.00	    2.30	 -690.30	    0.00
     38.0500	  175.00	    2.58	 -710.58	    0.00
     38.1000	  178.00	    2.92	 -707.92	    0.00
     38.1500	  173.00	    3.33	 -713.33	    0.00
     38.2000	  195.00	    3.85	 -691.85	    0.00
     38.2500	  194.00	    4.51	 -693.51	    0.00
     38.3000	  191.00	    5.45	 -697.45	    0.00
     38.3500	  178.00	    6.95	 -711.95	    0.00
     38.4000	  184.00	    9.63	 -708.63	    0.00
     38.4500	  186.00	   14.72	 -711.72	    0.00
     38.5000	  202.00	   24.26	 -705.26	    0.00
     38.5500	  200.00	   40.99	 -723.99	    0.00
     38.6000	  210.00	   67.57	 -740.57	    0.00
     38.6500	  198.00	  105.01	 -790.01	    0.00
     38.7000	  225.00	  150.74	 -808.74	    0.00
     38.7500	  209.00	  197.41	 -871.41	    0.00
     38.8000	  229.00	  233.07	 -887.07	    0.00
     38.8500	  197.00	  244.76	 -930.76	    0.00
     38.9000	  220.00	  227.30	 -890.30	    0.00
     38.9500	  215.00	  188.25	 -856.25	    0.00
     39.0000	  242.00	  140.93	 -781.93	    0.00
     39.0500	  340.00	   96.46	 -639.46	    0.00
     39.1000	  441.00	   61.20	 -503.20	    0.00
     39.1500	  654.00	   36.81	 -265.81	    0.00
     39.2000	  962.00	   21.80	   57.20	    0.00
     39.2500	 1477.00	   13.39	  580.61	    0.00
     39.3000	 2012.00	    8.93	 1120.07	    0.00
     39.3500	 2634.00	    6.57	 1744.43	    0.00
     39.4000	 3115.00	    5.23	 2226.77	    0.00
     39.4500	 3467.00	    4.36	 2579.64	    0.00
     39.5000	 3532.00	    3.73	 2645.27	    0.00
     39.5500	 3337.00	    3.24	 2450.76	    0.00
     39.6000	 2595.00	    2.85	 1709.15	    0.00
     39.6500	 1943.00	    2.52	 1057.48	    0.00
     39.7000	 1251.00	    2.25	  365.75	    0.00
     39.7500	  828.00	    2.01	  -57.01	    0.00
     39.8000	  525.00	    1.81	 -359.81	    0.00
     39.8500	  377.00	    1.64	 -507.64	    0.00
     39.9000	  294.00	    1.50	 -590.50	    0.00
     39.9500	  233.00	    1.37	 -651.37	    0.00
     40.0000	  233.00	    1.25	 -651.25	    0.00
     40.0500	  253.00	    1.15	 -631.15	    0.00
     40.1000	  253.00	    1.07	 -631.07	    0.00
     40.1500	  213.00	    0.99	 -670.99	    0.00
     40.2000	  196.00	    0.92	 -687.92	    0.00
     40.2500	  222.00	    0.85	 -661.85	    0.00
     40.3000	  172.00	    0.80	 -711.80	    0.00
     40.3500	  218.00	    0.74	 -665.74	    0.00
     40.4000	  206.00	    0.70	 -677.70	    0.00
     40.4500	  195.00	    0.66	 -688.66	    0.00
     40.5000	  209.00	    0.62	 -674.62	    0.00
     40.5500	  192.00	    0.58	 -691.58	    0.00
     40.6000	  197.00	    0.00	 -686.00	    0.00
     40.6500	  188.00	    0.00	 -695.00	    0.00
     40.7000	  202.00	    0.00	 -681.00	    0.00
     40.7500	  208.00	    0.00	 -675.00	    0.00
     40.8000	  184.00	    0.00	 -699.00	    0.00
     40.8500	  177.00	    0.00	 -706.00	    0.00
     40.9000	  202.00	    0.00	 -681.00	    0.00
     40.9500	  198.00	    0.00	 -685.00	    0.00
     41.0000	  203.00	    0.00	 -680.00	    0.00
     41.0500	  193.00	    0.00	 -690.00	    0.00
     41.1000	  188.00	    0.00	 -695.00	    0.00
     41.1500	  211.00	    0.00	 -672.00	    0.00
     41.2000	  189.00	    0.00	 -694.00	    0.00
     41.2500	  200.00	    0.00	 -683.00	    0.00
     41.3000	  198.00	    0.00	 -685.00	    0.00
     41.3500	  203.00	    0.00	 -680.00	    0.00
     41.4000	  197.00	    0.00	 -686.00	    0.00
     41.4500	  190.00	    0.00	 -693.00	    0.00
     41.5000	  212.00	    0.00	 -671.00	    0.00
     41.5500	  185.00	    0.00	 -698.00	    0.00
     41.6000	  228.00	    0.00	 -655.00	    0.00
     41.6500	  167.00	    0.00	 -716.00	    0.00
     41.7000	  207.00	    0.00	 -676.00	    0.00
     41.7500	  187.00	    0.00	 -696.00	    0.00
     41.8000	  190.00	    0.00	 -693.00	    0.00
     41.8500	  192.00	    0.00	 -691.00	    0.00
     41.9000	  185.00	    0.00	 -698.00	    0.00
     41.9500	  161.00	    0.00	 -722.00	    0.00
     42.0000	  187.00	    0.00	 -696.00	    0.00
     42.0500	  191.00	    0.00	 -692.00	    0.00
     42.1000	  159.00	    0.00	 -724.00	    0.00
     42.1500	  170.00	    0.00	 -713.00	    0.00
     42.2000	  182.00	    0.00	 -701.00	    0.00
     42.2500	  186.00	    0.00	 -697.00	    0.00
     42.3000	  192.00	    0.00	 -691.00	    0.00
     42.3500	  178.00	    0.00	 -705.00	    0.00
     42.4000	  186.00	    0.00	 -697.00	    0.00
     42.4500	  180.00	    0.00	 -703.00	    0.00
     42.5000	  178.00	    0.00	 -705.00	    0.00
     42.5500	  182.00	    0.00	 -701.00	    0.00
     42.6000	  179.00	    0.00	 -704.00	    0.00
     42.6500	  203.00	    0.00	 -680.00	    0.00
     42.7000	  191.00	    0.00	 -692.00	    0.00
     42.7500	  207.00	    0.00	 -676.00	    0.00
     42.8000	  183.00	    0.00	 -700.00	    0.00
     42.8500	  180.00	    0.00	 -703.00	    0.00
     42.9000	  191.00	    0.00	 -692.00	    0.00
     42.9500	  187.00	    0.00	 -696.00	    0.00
     43.0000	  184.00	    0.00	 -699.00	    0.00
     43.0500	  182.00	    0.00	 -701.00	    0.00
     43.1000	  178.00	    0.00	 -705.00	    0.00
     43.1500	  169.00	    0.00	 -714.00	    0.00
     43.2000	  158.00	    0.00	 -725.00	    0.00
     43.2500	  180.00	    0.00	 -703.00	    0.00
     43.3000	  174.00	    0.00	 -709.00	    0.00
     43.3500	  184.00	    0.00	 -699.00	    0.00
     43.4000	  178.00	    0.00	 -705.00	    0.00
     43.4500	  180.00	    0.32	 -703.32	    0.00
     43.5000	  144.00	    0.34	 -739.34	    0.00
     43.5500	  169.00	    0.36	 -714.36	    0.00
     43.6000	  177.00	    0.39	 -706.39	    0.00
     43.6500	  156.00	    0.41	 -727.41	    0.00
     43.7000	  148.00	    0.44	 -735.44	    0.00
     43.7500	  159.00	    0.47	 -724.47	    0.00
     43.8000	  195.00	    0.51	 -688.51	    0.00
     43.8500	  186.00	    0.55	 -697.55	    0.00
     43.9000	  180.00	    0.59	 -703.59	    0.00
     43.9500	  192.00	    0.64	 -691.64	    0.00
     44.0000	  186.00	    0.69	 -697.69	    0.00
     44.0500	  180.00	    0.76	 -703.76	    0.00
     44.1000	  174.00	    0.83	 -709.83	    0.00
     44.1500	  181.00	    0.91	 -702.91	    0.00
     44.2000	  178.00	    1.00	 -706.00	    0.00
     44.2500	  189.00	    1.11	 -695.11	    0.00
     44.3000	  206.00	    1.24	 -678.24	    0.00
     44.3500	  183.00	    1.39	 -701.39	    0.00
     44.4000	  161.00	    1.57	 -723.57	    0.00
     44.4500	  170.00	    1.79	 -714.79	    0.00
     44.5000	  203.00	    2.06	 -682.06	    0.00
     44.5500	  168.00	    2.40	 -717.40	    0.00
     44.6000	  199.00	    2.85	 -686.85	    0.00
     44.6500	  192.00	    3.54	 -694.54	    0.00
     44.7000	  192.00	    4.72	 -695.72	    0.00
     44.7500	  200.00	    6.92	 -689.92	    0.00
     44.8000	  206.00	   11.11	 -688.11	    0.00
     44.8500	  193.00	   18.72	 -708.72	    0.00
     44.9000	  188.00	   31.38	 -726.38	    0.00
     44.9500	  200.00	   50.14	 -733.14	    0.00
     45.0000	  193.00	   74.42	 -764.42	    0.00
     45.0500	  203.00	  101.01	 -781.01	    0.00
     45.1000	  212.00	  123.86	 -794.86	    0.00
     45.1500	  197.00	  135.25	 -821.25	    0.00
     45.2000	  219.00	  130.19	 -794.19	    0.00
     45.2500	  219.00	  111.00	 -775.00	    0.00
     45.3000	  226.00	   85.03	 -742.03	    0.00
     45.3500	  282.00	   59.28	 -660.28	    0.00
     45.4000	  353.00	   38.12	 -568.12	    0.00
     45.4500	  469.00	   23.08	 -437.08	    0.00
     45.5000	  741.00	   13.64	 -155.64	    0.00
     45.5500	 1176.00	    8.28	  284.72	    0.00
     45.6000	 1577.00	    5.43	  688.57	    0.00
     45.6500	 2122.00	    3.93	 1235.07	    0.00
     45.7000	 2726.00	    3.09	 1839.91	    0.00
     45.7500	 2990.00	    2.56	 2104.44	    0.00
     45.8000	 2991.00	    2.18	 2105.82	    0.00
     45.8500	 2796.00	    1.89	 1911.11	    0.00
     45.9000	 2372.00	    1.66	 1487.34	    0.00
     45.9500	 1752.00	    1.46	  867.54	    0.00
     46.0000	 1209.00	    1.30	  324.70	    0.00
     46.0500	  824.00	    1.16	  -60.16	    0.00
     46.1000	  512.00	    1.05	 -372.05	    0.00
     46.1500	  353.00	    0.95	 -530.95	    0.00
     46.2000	  273.00	    0.86	 -610.86	    0.00
     46.2500	  259.00	    0.78	 -624.78	    0.00
     46.3000	  233.00	    0.72	 -650.72	    0.00
     46.3500	  220.00	    0.66	 -663.66	    0.00
     46.4000	  228.00	    0.61	 -655.61	    0.00
     46.4500	  231.00	    0.56	 -652.56	    0.00
     46.5000	  218.00	    0.52	 -665.52	    0.00
     46.5500	  210.00	    0.49	 -673.49	    0.00
     46.6000	  212.00	    0.45	 -671.45	    0.00
     46.6500	  187.00	    0.42	 -696.42	    0.00
     46.7000	  207.00	    0.40	 -676.40	    0.00
     46.7500	  212.00	    0.37	 -671.37	    0.00
     46.8000	  188.00	    0.35	 -695.35	    0.00
     46.8500	  178.00	    0.33	 -705.33	    0.00
     46.9000	  186.00	    0.00	 -697.00	    0.00
     46.9500	  192.00	    0.00	 -691.00	    0.00
     47.0000	  192.00	    0.00	 -691.00	    0.00
     47.0500	  186.00	    0.00	 -697.00	    0.00
     47.1000	  208.00	    0.00	 -675.00	    0.00
     47.1500	  199.00	    0.00	 -684.00	    0.00
     47.2000	  165.00	    0.00	 -718.00	    0.00
     47.2500	  212.00	    0.00	 -671.00	    0.00
     47.3000	  191.00	    0.00	 -692.00	    0.00
     47.3500	  185.00	    0.00	 -698.00	    0.00
     47.4000	  171.00	    0.00	 -712.00	    0.00
     47.4500	  176.00	    0.00	 -707.00	    0.00
     47.5000	  179.00	    0.00	 -704.00	    0.00
     47.5500	  187.00	    0.00	 -696.00	    0.00
     47.6000	  181.00	    0.00	 -702.00	    0.00
     47.6500	  173.00	    0.00	 -710.00	    0.00
     47.7000	  167.00	    0.00	 -716.00	    0.00
     47.7500	  182.00	    0.00	 -701.00	    0.00
     47.8000	  171.00	    0.00	 -712.00	    0.00
     47.8500	  185.00	    0.00	 -698.00	    0.00
     47.9000	  177.00	    0.00	 -706.00	    0.00
     47.9500	  154.00	    0.00	 -729.00	    0.00
     48.0000	  200.00	    0.00	 -683.00	    0.00
     48.0500	  177.00	    0.00	 -706.00	    0.00
     48.1000	  184.00	    0.00	 -699.00	    0.00
     48.1500	  166.00	    0.00	 -717.00	    0.00
     48.2000	  181.00	    0.00	 -702.00	    0.00
     48.2500	  208.00	    0.00	 -675.00	    0.00
     48.3000	  186.00	    0.00	 -697.00	    0.00
     48.3500	  164.00	    0.00	 -719.00	    0.00
     48.4000	  196.00	    0.00	 -687.00	    0.00
     48.4500	  169.00	    0.00	 -714.00	    0.00
     48.5000	  173.00	    0.00	 -710.00	    0.00
     48.5500	  200.00	    0.00	 -683.00	    0.00
     48.6000	  163.00	    0.00	 -720.00	    0.00
     48.6500	  173.00	    0.00	 -710.00	    0.00
     48.7000	  187.00	    0.00	 -696.00	    0.00
     48.7500	  177.00	    0.00	 -706.00	    0.00
     48.8000	  200.00	    0.00	 -683.00	    0.00
     48.8500	  171.00	    0.00	 -712.00	    0.00
     48.9000	  192.00	    0.00	 -691.00	    0.00
     48.9500	  178.00	    0.00	 -705.00	    0.00
     49.0000	  169.00	    0.00	 -714.00	    0.00
     49.0500	  160.00	    0.00	 -723.00	    0.00
     49.1000	  182.00	    0.00	 -701.00	    0.00
     49.1500	  173.00	    0.12	 -710.12	    0.00
     49.2000	  170.00	    0.12	 -713.12	    0.00
     49.2500	  181.00	    0.13	 -702.13	    0.00
     49.3000	  170.00	    0.14	 -713.14	    0.00
     49.3500	  164.00	    0.15	 -719.15	    0.00
     49.4000	  166.00	    0.16	 -717.16	    0.00
     49.4500	  174.00	    0.17	 -709.17	    0.00
     49.5000	  173.00	    0.18	 -710.18	    0.00
     49.5500	  137.00	    0.20	 -746.20	    0.00
     49.6000	  166.00	    0.21	 -717.21	    0.00
     49.6500	  194.00	    0.23	 -689.23	    0.00
     49.7000	  160.00	    0.25	 -723.25	    0.00
     49.7500	  152.00	    0.27	 -731.27	    0.00
     49.8000	  180.00	    0.30	 -703.30	    0.00
     49.8500	  160.00	    0.33	 -723.33	    0.00
     49.9000	  149.00	    0.37	 -734.37	    0.00
     49.9500	  172.00	    0.41	 -711.41	    0.00
     50.0000	  170.00	    0.45	 -713.45	    0.00
     50.0500	  175.00	    0.51	 -708.51	    0.00
     50.1000	  162.00	    0.58	 -721.58	    0.00
     50.1500	  168.00	    0.66	 -715.66	    0.00
     50.2000	  186.00	    0.76	 -697.76	    0.00
     50.2500	  179.00	    0.89	 -704.89	    0.00
     50.3000	  165.00	    1.07	 -719.07	    0.00
     50.3500	  155.00	    1.34	 -729.34	    0.00
     50.4000	  170.00	    1.81	 -714.81	    0.00
     50.4500	  162.00	    2.70	 -723.70	    0.00
     50.5000	  157.00	    4.40	 -730.40	    0.00
     50.5500	  173.00	    7.43	 -717.43	    0.00
     50.6000	  149.00	   12.37	 -746.37	    0.00
     50.6500	  167.00	   19.49	 -735.49	    0.00
     50.7000	  165.00	   28.38	 -746.38	    0.00
     50.7500	  157.00	   37.63	 -763.63	    0.00
     50.8000	  177.00	   44.85	 -750.85	    0.00
     50.8500	  187.00	   47.30	 -743.30	    0.00
     50.9000	  155.00	   43.85	 -771.85	    0.00
     50.9500	  194.00	   36.08	 -725.08	    0.00
     51.0000	  147.00	   26.74	 -762.74	    0.00
     51.0500	  169.00	   18.09	 -732.09	    0.00
     51.1000	  166.00	   11.35	 -728.35	    0.00
     51.1500	  193.00	    6.78	 -696.78	    0.00
     51.2000	  168.00	    4.02	 -719.02	    0.00
     51.2500	  188.00	    2.50	 -697.50	    0.00
     51.3000	  182.00	    1.71	 -702.71	    0.00
     51.3500	  180.00	    1.28	 -704.28	    0.00
     51.4000	  177.00	    1.03	 -707.03	    0.00
     51.4500	  188.00	    0.86	 -695.86	    0.00
     51.5000	  187.00	    0.74	 -696.74	    0.00
     51.5500	  178.00	    0.64	 -705.64	    0.00
     51.6000	  177.00	    0.57	 -706.57	    0.00
     51.6500	  184.00	    0.50	 -699.50	    0.00
     51.7000	  172.00	    0.45	 -711.45	    0.00
     51.7500	  188.00	    0.40	 -695.40	    0.00
     51.8000	  194.00	    0.36	 -689.36	    0.00
     51.8500	  179.00	    0.33	 -704.33	    0.00
     51.9000	  176.00	    0.30	 -707.30	    0.00
     51.9500	  180.00	    0.27	 -703.27	    0.00
     52.0000	  169.00	    0.25	 -714.25	    0.00
     52.0500	  178.00	    0.23	 -705.23	    0.00
     52.1000	  165.00	    0.21	 -718.21	    0.00
     52.1500	  149.00	    0.20	 -734.20	    0.00
     52.2000	  168.00	    0.18	 -715.18	    0.00
     52.2500	  157.00	    0.17	 -726.17	    0.00
     52.3000	  151.00	    0.16	 -732.16	    0.00
     52.3500	  181.00	    0.15	 -702.15	    0.00
     52.4000	  172.00	    0.14	 -711.14	    0.00
     52.4500	  178.00	    0.13	 -705.13	    0.00
     52.5000	  179.00	    0.12	 -704.12	    0.00
     52.5500	  171.00	    0.12	 -712.12	    0.00
     52.6000	  129.00	    0.00	 -754.00	    0.00
     52.6500	  180.00	    0.00	 -703.00	    0.00
     52.7000	  154.00	    0.00	 -729.00	    0.00
     52.7500	  182.00	    0.00	 -701.00	    0.00
     52.8000	  166.00	    0.00	 -717.00	    0.00
     52.8500	  156.00	    0.00	 -727.00	    0.00
     52.9000	  164.00	    0.00	 -719.00	    0.00
     52.9500	  166.00	    0.00	 -717.00	    0.00
     53.0000	  176.00	    0.00	 -707.00	    0.00
     53.0500	  182.00	    0.00	 -701.00	    0.00
     53.1000	  173.00	    0.00	 -710.00	    0.00
     53.1500	  160.00	    0.00	 -723.00	    0.00
     53.2000	  169.00	    0.00	 -714.00	    0.00
     53.2500	  162.00	    0.00	 -721.00	    0.00
     53.3000	  164.00	    0.00	 -719.00	    0.00
     53.3500	  165.00	    0.00	 -718.00	    0.00
     53.4000	  177.00	    0.00	 -706.00	    0.00
     53.4500	  173.00	    0.00	 -710.00	    0.00
     53.5000	  158.00	    0.00	 -725.00	    0.00
     53.5500	  164.00	    0.00	 -719.00	    0.00
     53.6000	  175.00	    0.00	 -708.00	    0.00
     53.6500	  166.00	    0.00	 -717.00	    0.00
     53.7000	  161.00	    0.00	 -722.00	    0.00
     53.7500	  167.00	    0.00	 -716.00	    0.00
     53.8000	  136.00	    0.00	 -747.00	    0.00
     53.8500	  167.00	    0.00	 -716.00	    0.00
     53.9000	  152.00	    0.00	 -731.00	    0.00
     53.9500	  159.00	    0.00	 -724.00	    0.00
     54.0000	  172.00	    0.00	 -711.00	    0.00
     54.0500	  179.00	    0.00	 -704.00	    0.00
     54.1000	  169.00	    0.00	 -714.00	    0.00
     54.1500	  165.00	    0.00	 -718.00	    0.00
     54.2000	  166.00	    0.00	 -717.00	    0.00
     54.2500	  162.00	    0.00	 -721.00	    0.00
     54.3000	  175.00	    0.00	 -708.00	    0.00
     54.3500	  162.00	    0.00	 -721.00	    0.00
     54.4000	  145.00	    0.00	 -738.00	    0.00
     54.4500	  148.00	    0.10	 -735.10	    0.00
     54.5000	  157.00	    0.11	 -726.11	    0.00
     54.5500	  176.00	    0.12	 -707.12	    0.00
     54.6000	  162.00	    0.12	 -721.12	    0.00
     54.6500	  153.00	    0.13	 -730.13	    0.00
     54.7000	  178.00	    0.14	 -705.14	    0.00
     54.7500	  147.00	    0.15	 -736.15	    0.00
     54.8000	  146.00	    0.16	 -737.16	    0.00
     54.8500	  170.00	    0.18	 -713.18	    0.00
     54.9000	  155.00	    0.19	 -728.19	    0.00
     54.9500	  170.00	    0.21	 -713.21	    0.00
     55.0000	  142.00	    0.23	 -741.23	    0.00
     55.0500	  154.00	    0.25	 -729.25	    0.00
     55.1000	  150.00	    0.27	 -733.27	    0.00
     55.1500	  145.00	    0.30	 -738.30	    0.00
     55.2000	  151.00	    0.33	 -732.33	    0.00
     55.2500	  162.00	    0.37	 -721.37	    0.00
     55.3000	  153.00	    0.42	 -730.42	    0.00
     55.3500	  170.00	    0.47	 -713.47	    0.00
     55.4000	  153.00	    0.54	 -730.54	    0.00
     55.4500	  156.00	    0.62	 -727.62	    0.00
     55.5000	  163.00	    0.72	 -720.72	    0.00
     55.5500	  149.00	    0.86	 -734.86	    0.00
     55.6000	  135.00	    1.06	 -749.06	    0.00
     55.6500	  158.00	    1.41	 -726.41	    0.00
     55.7000	  144.00	    2.06	 -741.06	    0.00
     55.7500	  152.00	    3.28	 -734.28	    0.00
     55.8000	  165.00	    5.52	 -723.52	    0.00
     55.8500	  164.00	    9.24	 -728.24	    0.00
     55.9000	  175.00	   14.75	 -722.75	    0.00
     55.9500	  150.00	   21.82	 -754.82	    0.00
     56.0000	  168.00	   29.48	 -744.48	    0.00
     56.0500	  159.00	   35.85	 -759.85	    0.00
     56.1000	  187.00	   38.62	 -734.62	    0.00
     56.1500	  170.00	   36.50	 -749.50	    0.00
     56.2000	  159.00	   30.50	 -754.50	    0.00
     56.2500	  148.00	   22.89	 -757.89	    0.00
     56.3000	  159.00	   15.65	 -739.65	    0.00
     56.3500	  174.00	    9.90	 -718.90	    0.00
     56.4000	  195.00	    5.94	 -693.94	    0.00
     56.4500	  219.00	    3.52	 -667.52	    0.00
     56.5000	  216.00	    2.18	 -669.18	    0.00
     56.5500	  271.00	    1.48	 -613.48	    0.00
     56.6000	  337.00	    1.10	 -547.10	    0.00
     56.6500	  417.00	    0.88	 -466.88	    0.00
     56.7000	  390.00	    0.74	 -493.74	    0.00
     56.7500	  414.00	    0.63	 -469.63	    0.00
     56.8000	  388.00	    0.55	 -495.55	    0.00
     56.8500	  317.00	    0.48	 -566.48	    0.00
     56.9000	  307.00	    0.42	 -576.42	    0.00
     56.9500	  250.00	    0.38	 -633.38	    0.00
     57.0000	  205.00	    0.34	 -678.34	    0.00
     57.0500	  167.00	    0.30	 -716.30	    0.00
     57.1000	  179.00	    0.27	 -704.27	    0.00
     57.1500	  159.00	    0.25	 -724.25	    0.00
     57.2000	  170.00	    0.23	 -713.23	    0.00
     57.2500	  168.00	    0.21	 -715.21	    0.00
     57.3000	  180.00	    0.19	 -703.19	    0.00
     57.3500	  144.00	    0.18	 -739.18	    0.00
     57.4000	  178.00	    0.16	 -705.16	    0.00
     57.4500	  203.00	    0.15	 -680.15	    0.00
     57.5000	  159.00	    0.14	 -724.14	    0.00
     57.5500	  165.00	    0.13	 -718.13	    0.00
     57.6000	  164.00	    0.12	 -719.12	    0.00
     57.6500	  135.00	    0.12	 -748.12	    0.00
     57.7000	  157.00	    0.11	 -726.11	    0.00
     57.7500	  162.00	    0.10	 -721.10	    0.00
     57.8000	  175.00	    0.10	 -708.10	    0.00
     57.8500	  161.00	    0.00	 -722.00	    0.00
     57.9000	  174.00	    0.00	 -709.00	    0.00
     57.9500	  187.00	    0.00	 -696.00	    0.00
     58.0000	  164.00	    0.00	 -719.00	    0.00
     58.0500	  188.00	    0.00	 -695.00	    0.00
     58.1000	  163.00	    0.00	 -720.00	    0.00
     58.1500	  177.00	    0.00	 -706.00	    0.00
     58.2000	  181.00	    0.00	 -702.00	    0.00
     58.2500	  156.00	    0.00	 -727.00	    0.00
     58.3000	  163.00	    0.00	 -720.00	    0.00
     58.3500	  190.00	    0.00	 -693.00	    0.00
     58.4000	  162.00	    0.00	 -721.00	    0.00
     58.4500	  186.00	    0.00	 -697.00	    0.00
     58.5000	  169.00	    0.00	 -714.00	    0.00
     58.5500	  160.00	    0.00	 -723.00	    0.00
     58.6000	  171.00	    0.00	 -712.00	    0.00
     58.6500	  160.00	    0.00	 -723.00	    0.00
     58.7000	  174.00	    0.00	 -709.00	    0.00
     58.7500	  163.00	    0.00	 -720.00	    0.00
     58.8000	  180.00	    0.00	 -703.00	    0.00
     58.8500	  176.00	    0.00	 -707.00	    0.00
     58.9000	  174.00	    0.00	 -709.00	    0.00
     58.9500	  177.00	    0.00	 -706.00	    0.00
     59.0000	  186.00	    0.00	 -697.00	    0.00
     59.0500	  157.00	    0.00	 -726.00	    0.00
     59.1000	  188.00	    0.00	 -695.00	    0.00
     59.1500	  162.00	    0.00	 -721.00	    0.00
     59.2000	  160.00	    0.00	 -723.00	    0.00
     59.2500	  196.00	    0.00	 -687.00	    0.00
     59.3000	  178.00	    0.00	 -705.00	    0.00
     59.3500	  188.00	    0.00	 -695.00	    0.00
     59.4000	  161.00	    0.00	 -722.00	    0.00
     59.4500	  157.00	    0.00	 -726.00	    0.00
     59.5000	  183.00	    0.00	 -700.00	    0.00
     59.5500	  169.00	    0.00	 -714.00	    0.00
     59.6000	  150.00	    0.00	 -733.00	    0.00
     59.6500	  195.00	    0.00	 -688.00	    0.00
     59.7000	  175.00	    0.00	 -708.00	    0.00
     59.7500	  160.00	    0.00	 -723.00	    0.00
     59.8000	  168.00	    0.00	 -715.00	    0.00
     59.8500	  191.00	    0.00	 -692.00	    0.00
     59.9000	  181.00	    0.00	 -702.00	    0.00
     59.9500	  168.00	    0.00	 -715.00	    0.00
     60.0000	  181.00	    0.00	 -702.00	    0.00
     60.0500	  158.00	    0.00	 -725.00	    0.00
     60.1000	  160.00	    0.00	 -723.00	    0.00
     60.1500	  151.00	    0.00	 -732.00	    0.00
     60.2000	  171.00	    0.00	 -712.00	    0.00
     60.2500	  167.00	    0.00	 -716.00	    0.00
     60.3000	  160.00	    0.00	 -723.00	    0.00
     60.3500	  157.00	    0.00	 -726.00	    0.00
     60.4000	  172.00	    0.00	 -711.00	    0.00
     60.4500	  140.00	    0.00	 -743.00	    0.00
     60.5000	  172.00	    0.00	 -711.00	    0.00
     60.5500	  150.00	    0.00	 -733.00	    0.00
     60.6000	  179.00	    0.00	 -704.00	    0.00
     60.6500	  153.00	    0.00	 -730.00	    0.00
     60.7000	  170.00	    0.00	 -713.00	    0.00
     60.7500	  184.00	    0.00	 -699.00	    0.00
     60.8000	  158.00	    0.00	 -725.00	    0.00
     60.8500	  177.00	    0.00	 -706.00	    0.00
     60.9000	  159.00	    0.00	 -724.00	    0.00
     60.9500	  157.00	    0.00	 -726.00	    0.00
     61.0000	  168.00	    0.00	 -715.00	    0.00
     61.0500	  154.00	    0.00	 -729.00	    0.00
     61.1000	  170.00	    0.00	 -713.00	    0.00
     61.1500	  147.00	    0.00	 -736.00	    0.00
     61.2000	  161.00	    0.00	 -722.00	    0.00
     61.2500	  175.00	    0.00	 -708.00	    0.00
     61.3000	  170.00	    0.00	 -713.00	    0.00
     61.3500	  153.00	    0.00	 -730.00	    0.00
     61.4000	  165.00	    0.00	 -718.00	    0.00
     61.4500	  164.00	    0.00	 -719.00	    0.00
     61.5000	  174.00	    0.00	 -709.00	    0.00
     61.5500	  160.00	    0.00	 -723.00	    0.00
     61.6000	  188.00	    0.00	 -695.00	    0.00
     61.6500	  182.00	    0.00	 -701.00	    0.00
     61.7000	  197.00	    0.00	 -686.00	    0.00
     61.7500	  163.00	    0.00	 -720.00	    0.00
     61.8000	  176.00	    0.00	 -707.00	    0.00
     61.8500	  157.00	    0.00	 -726.00	    0.00
     61.9000	  166.00	    0.00	 -717.00	    0.00
     61.9500	  173.00	    0.00	 -710.00	    0.00
     62.0000	  167.00	    0.00	 -716.00	    0.00
     62.0500	  175.00	    0.00	 -708.00	    0.00
     62.1000	  143.00	    0.00	 -740.00	    0.00
     62.1500	  148.00	    0.00	 -735.00	    0.00
     62.2000	  178.00	    0.00	 -705.00	    0.00
     62.2500	  180.00	    0.00	 -703.00	    0.00
     62.3000	  141.00	    0.00	 -742.00	    0.00
     62.3500	  202.00	    0.00	 -681.00	    0.00
     62.4000	  172.00	    0.00	 -711.00	    0.00
     62.4500	  169.00	    0.00	 -714.00	    0.00
     62.5000	  143.00	    0.00	 -740.00	    0.00
     62.5500	  146.00	    0.00	 -737.00	    0.00
     62.6000	  169.00	    0.00	 -714.00	    0.00
     62.6500	  146.00	    0.00	 -737.00	    0.00
     62.7000	  156.00	    0.00	 -727.00	    0.00
     62.7500	  147.00	    0.00	 -736.00	    0.00
     62.8000	  158.00	    0.00	 -725.00	    0.00
     62.8500	  178.00	    0.00	 -705.00	    0.00
     62.9000	  163.00	    0.00	 -720.00	    0.00
     62.9500	  168.00	    0.00	 -715.00	    0.00
     63.0000	  164.00	    0.00	 -719.00	    0.00
     63.0500	  180.00	    0.00	 -703.00	    0.00
     63.1000	  189.00	    0.00	 -694.00	    0.00
     63.1500	  164.00	    0.00	 -719.00	    0.00
     63.2000	  181.00	    0.00	 -702.00	    0.00
     63.2500	  179.00	    0.00	 -704.00	    0.00
     63.3000	  147.00	    0.00	 -736.00	    0.00
     63.3500	  179.00	    0.00	 -704.00	    0.00
     63.4000	  150.00	    0.00	 -733.00	    0.00
     63.4500	  168.00	    0.00	 -715.00	    0.00
     63.5000	  156.00	    0.00	 -727.00	    0.00
     63.5500	  181.00	    0.00	 -702.00	    0.00
     63.6000	  170.00	    0.00	 -713.00	    0.00
     63.6500	  181.00	    0.00	 -702.00	    0.00
     63.7000	  184.00	    0.00	 -699.00	    0.00
     63.7500	  153.00	    0.00	 -730.00	    0.00
     63.8000	  166.00	    0.00	 -717.00	    0.00
     63.8500	  166.00	    0.00	 -717.00	    0.00
     63.9000	  169.00	    0.00	 -714.00	    0.00
     63.9500	  175.00	    0.00	 -708.00	    0.00
     64.0000	  157.00	    0.00	 -726.00	    0.00
     64.0500	  165.00	    0.00	 -718.00	    0.00
     64.1000	  169.00	    0.33	 -714.33	    0.00
     64.1500	  164.00	    0.35	 -719.35	    0.00
     64.2000	  181.00	    0.38	 -702.38	    0.00
     64.2500	  189.00	    0.40	 -694.40	    0.00
     64.3000	  179.00	    0.43	 -704.43	    0.00
     64.3500	  157.00	    0.46	 -726.46	    0.00
     64.4000	  189.00	    0.49	 -694.49	    0.00
     64.4500	  167.00	    0.53	 -716.53	    0.00
     64.5000	  178.00	    0.57	 -705.57	    0.00
     64.5500	  144.00	    0.62	 -739.62	    0.00
     64.6000	  180.00	    0.67	 -703.67	    0.00
     64.6500	  182.00	    0.73	 -701.73	    0.00
     64.7000	  199.00	    0.80	 -684.80	    0.00
     64.7500	  172.00	    0.87	 -711.87	    0.00
     64.8000	  191.00	    0.96	 -692.96	    0.00
     64.8500	  166.00	    1.07	 -718.07	    0.00
     64.9000	  157.00	    1.19	 -727.19	    0.00
     64.9500	  197.00	    1.33	 -687.33	    0.00
     65.0000	  204.00	    1.50	 -680.50	    0.00
     65.0500	  183.00	    1.70	 -701.70	    0.00
     65.1000	  189.00	    1.94	 -695.94	    0.00
     65.1500	  189.00	    2.25	 -696.25	    0.00
     65.2000	  170.00	    2.64	 -715.64	    0.00
     65.2500	  188.00	    3.19	 -698.19	    0.00
     65.3000	  176.00	    4.05	 -711.05	    0.00
     65.3500	  172.00	    5.57	 -716.57	    0.00
     65.4000	  182.00	    8.42	 -709.42	    0.00
     65.4500	  205.00	   13.74	 -691.74	    0.00
     65.5000	  191.00	   23.04	 -715.04	    0.00
     65.5500	  192.00	   37.70	 -728.70	    0.00
     65.6000	  190.00	   58.06	 -751.06	    0.00
     65.6500	  194.00	   82.33	 -771.33	    0.00
     65.7000	  212.00	  105.94	 -776.94	    0.00
     65.7500	  221.00	  121.76	 -783.76	    0.00
     65.8000	  227.00	  123.02	 -779.02	    0.00
     65.8500	  227.00	  109.09	 -765.09	    0.00
     65.9000	  239.00	   86.18	 -730.18	    0.00
     65.9500	  261.00	   61.64	 -683.64	    0.00
     66.0000	  301.00	   40.48	 -622.48	    0.00
     66.0500	  409.00	   24.93	 -498.93	    0.00
     66.1000	  559.00	   14.88	 -338.88	    0.00
     66.1500	  820.00	    9.05	  -72.05	    0.00
     66.2000	 1276.00	    5.90	  387.10	    0.00
     66.2500	 1776.00	    4.23	  888.77	    0.00
     66.3000	 2322.00	    3.30	 1435.70	    0.00
     66.3500	 2880.00	    2.71	 1994.29	    0.00
     66.4000	 3051.00	    2.30	 2165.70	    0.00
     66.4500	 2980.00	    1.98	 2095.02	    0.00
     66.5000	 2572.00	    1.73	 1687.27	    0.00
     66.5500	 1961.00	    1.52	 1076.48	    0.00
     66.6000	 1315.00	    1.35	  430.65	    0.00
     66.6500	  919.00	    1.21	   34.79	    0.00
     66.7000	  548.00	    1.08	 -336.08	    0.00
     66.7500	  405.00	    0.98	 -478.98	    0.00
     66.8000	  299.00	    0.89	 -584.89	    0.00
     66.8500	  309.00	    0.81	 -574.81	    0.00
     66.9000	  279.00	    0.74	 -604.74	    0.00
     66.9500	  281.00	    0.68	 -602.68	    0.00
     67.0000	  235.00	    0.63	 -648.63	    0.00
     67.0500	  239.00	    0.58	 -644.58	    0.00
     67.1000	  212.00	    0.54	 -671.54	    0.00
     67.1500	  228.00	    0.50	 -655.50	    0.00
     67.2000	  231.00	    0.46	 -652.46	    0.00
     67.2500	  198.00	    0.43	 -685.43	    0.00
     67.3000	  223.00	    0.41	 -660.41	    0.00
     67.3500	  201.00	    0.38	 -682.38	    0.00
     67.4000	  208.00	    0.36	 -675.36	    0.00
     67.4500	  207.00	    0.34	 -676.34	    0.00
     67.5000	  217.00	    0.00	 -666.00	    0.00
     67.5500	  196.00	    0.00	 -687.00	    0.00
     67.6000	  182.00	    0.00	 -701.00	    0.00
     67.6500	  182.00	    0.00	 -701.00	    0.00
     67.7000	  186.00	    0.00	 -697.00	    0.00
     67.7500	  176.00	    0.00	 -707.00	    0.00
     67.8000	  192.00	    0.00	 -691.00	    0.00
     67.8500	  215.00	    0.00	 -668.00	    0.00
     67.9000	  178.00	    0.00	 -705.00	    0.00
     67.9500	  191.00	    0.00	 -692.00	    0.00
     68.0000	  178.00	    0.00	 -705.00	    0.00
     68.0500	  185.00	    0.00	 -698.00	    0.00
     68.1000	  171.00	    0.00	 -712.00	    0.00
     68.1500	  174.00	    0.00	 -709.00	    0.00
     68.2000	  193.00	    0.00	 -690.00	    0.00
     68.2500	  182.00	    0.00	 -701.00	    0.00
     68.3000	  178.00	    0.00	 -705.00	    0.00
     68.3500	  196.00	    0.00	 -687.00	    0.00
     68.4000	  178.00	    0.00	 -705.00	    0.00
     68.4500	  173.00	    0.00	 -710.00	    0.00
     68.5000	  175.00	    0.00	 -708.00	    0.00
     68.5500	  178.00	    0.00	 -705.00	    0.00
     68.6000	  177.00	    0.00	 -706.00	    0.00
     68.6500	  176.00	    0.08	 -707.08	    0.00
     68.7000	  200.00	    0.09	 -683.09	    0.00
     68.7500	  177.00	    0.09	 -706.09	    0.00
     68.8000	  185.00	    0.10	 -698.10	    0.00
     68.8500	  167.00	    0.11	 -716.11	    0.00
     68.9000	  158.00	    0.11	 -725.11	    0.00
     68.9500	  176.00	    0.12	 -707.12	    0.00
     69.0000	  192.00	    0.13	 -691.13	    0.00
     69.0500	  174.00	    0.14	 -709.14	    0.00
     69.1000	  154.00	    0.15	 -729.15	    0.00
     69.1500	  153.00	    0.16	 -730.16	    0.00
     69.2000	  167.00	    0.18	 -716.18	    0.00
     69.2500	  168.00	    0.20	 -715.20	    0.00
     69.3000	  167.00	    0.21	 -716.21	    0.00
     69.3500	  163.00	    0.24	 -720.24	    0.00
     69.4000	  157.00	    0.26	 -726.26	    0.00
     69.4500	  185.00	    0.29	 -698.29	    0.00
     69.5000	  151.00	    0.33	 -732.33	    0.00
     69.5500	  176.00	    0.37	 -707.37	    0.00
     69.6000	  187.00	    0.42	 -696.42	    0.00
     69.6500	  170.00	    0.48	 -713.48	    0.00
     69.7000	  164.00	    0.55	 -719.55	    0.00
     69.7500	  204.00	    0.64	 -679.64	    0.00
     69.8000	  169.00	    0.78	 -714.78	    0.00
     69.8500	  191.00	    0.98	 -692.98	    0.00
     69.9000	  177.00	    1.33	 -707.33	    0.00
     69.9500	  157.00	    1.99	 -727.99	    0.00
     70.0000	  173.00	    3.21	 -713.21	    0.00
     70.0500	  199.00	    5.35	 -689.35	    0.00
     70.1000	  168.00	    8.75	 -723.75	    0.00
     70.1500	  191.00	   13.52	 -705.52	    0.00
     70.2000	  165.00	   19.28	 -737.28	    0.00
     70.2500	  156.00	   25.02	 -752.02	    0.00
     70.3000	  163.00	   29.07	 -749.07	    0.00
     70.3500	  149.00	   29.75	 -763.75	    0.00
     70.4000	  199.00	   26.72	 -710.72	    0.00
     70.4500	  158.00	   21.35	 -746.35	    0.00
     70.5000	  158.00	   15.44	 -740.44	    0.00
     70.5500	  150.00	   10.26	 -743.26	    0.00
     70.6000	  197.00	    6.38	 -692.38	    0.00
     70.6500	  167.00	    3.83	 -719.83	    0.00
     70.7000	  180.00	    2.33	 -705.33	    0.00
     70.7500	  187.00	    1.51	 -697.51	    0.00
     70.8000	  190.00	    1.08	 -694.08	    0.00
     70.8500	  169.00	    0.84	 -714.84	    0.00
     70.9000	  214.00	    0.68	 -669.68	    0.00
     70.9500	  188.00	    0.58	 -695.58	    0.00
     71.0000	  200.00	    0.50	 -683.50	    0.00
     71.0500	  186.00	    0.44	 -697.44	    0.00
     71.1000	  169.00	    0.38	 -714.38	    0.00
     71.1500	  166.00	    0.34	 -717.34	    0.00
     71.2000	  175.00	    0.30	 -708.30	    0.00
     71.2500	  170.00	    0.27	 -713.27	    0.00
     71.3000	  191.00	    0.24	 -692.24	    0.00
     71.3500	  185.00	    0.22	 -698.22	    0.00
     71.4000	  191.00	    0.20	 -692.20	    0.00
     71.4500	  181.00	    0.18	 -702.18	    0.00
     71.5000	  188.00	    0.17	 -695.17	    0.00
     71.5500	  164.00	    0.16	 -719.16	    0.00
     71.6000	  185.00	    0.14	 -698.14	    0.00
     71.6500	  168.00	    0.13	 -715.13	    0.00
     71.7000	  168.00	    0.12	 -715.12	    0.00
     71.7500	  167.00	    0.12	 -716.12	    0.00
     71.8000	  158.00	    0.11	 -725.11	    0.00
     71.8500	  173.00	    0.10	 -710.10	    0.00
     71.9000	  177.00	    0.10	 -706.09	    0.00
     71.9500	  193.00	    0.09	 -690.09	    0.00
     72.0000	  190.00	    0.08	 -693.08	    0.00
     72.0500	  174.00	    0.00	 -709.00	    0.00
     72.1000	  161.00	    0.00	 -722.00	    0.00
     72.1500	  147.00	    0.00	 -736.00	    0.00
     72.2000	  165.00	    0.00	 -718.00	    0.00
     72.2500	  188.00	    0.00	 -695.00	    0.00
     72.3000	  172.00	    0.00	 -711.00	    0.00
     72.3500	  176.00	    0.00	 -707.00	    0.00
     72.4000	  167.00	    0.00	 -716.00	    0.00
     72.4500	  186.00	    0.00	 -697.00	    0.00
     72.5000	  178.00	    0.00	 -705.00	    0.00
     72.5500	  158.00	    0.00	 -725.00	    0.00
     72.6000	  168.00	    0.00	 -715.00	    0.00
     72.6500	  180.00	    0.00	 -703.00	    0.00
     72.7000	  154.00	    0.00	 -729.00	    0.00
     72.7500	  162.00	    0.00	 -721.00	    0.00
     72.8000	  168.00	    0.00	 -715.00	    0.00
     72.8500	  194.00	    0.00	 -689.00	    0.00
     72.9000	  164.00	    0.00	 -719.00	    0.00
     72.9500	  169.00	    0.00	 -714.00	    0.00
     73.0000	  160.00	    0.00	 -723.00	    0.00
     73.0500	  164.00	    0.06	 -719.06	    0.00
     73.1000	  171.00	    0.06	 -712.06	    0.00
     73.1500	  169.00	    0.07	 -714.07	    0.00
     73.2000	  167.00	    0.07	 -716.07	    0.00
     73.2500	  150.00	    0.07	 -733.07	    0.00
     73.3000	  173.00	    0.08	 -710.08	    0.00
     73.3500	  183.00	    0.08	 -700.08	    0.00
     73.4000	  169.00	    0.09	 -714.09	    0.00
     73.4500	  180.00	    0.10	 -703.10	    0.00
     73.5000	  173.00	    0.11	 -710.11	    0.00
     73.5500	  195.00	    0.11	 -688.11	    0.00
     73.6000	  178.00	    0.12	 -705.12	    0.00
     73.6500	  193.00	    0.14	 -690.14	    0.00
     73.7000	  179.00	    0.15	 -704.15	    0.00
     73.7500	  153.00	    0.16	 -730.16	    0.00
     73.8000	  169.00	    0.18	 -714.18	    0.00
     73.8500	  165.00	    0.20	 -718.20	    0.00
     73.9000	  172.00	    0.22	 -711.22	    0.00
     73.9500	  171.00	    0.25	 -712.25	    0.00
     74.0000	  178.00	    0.28	 -705.28	    0.00
     74.0500	  180.00	    0.32	 -703.32	    0.00
     74.1000	  168.00	    0.37	 -715.37	    0.00
     74.1500	  169.00	    0.43	 -714.43	    0.00
     74.2000	  190.00	    0.50	 -693.50	    0.00
     74.2500	  170.00	    0.62	 -713.62	    0.00
     74.3000	  178.00	    0.80	 -705.80	    0.00
     74.3500	  158.00	    1.14	 -726.14	    0.00
     74.4000	  185.00	    1.75	 -699.75	    0.00
     74.4500	  181.00	    2.87	 -704.87	    0.00
     74.5000	  173.00	    4.74	 -714.74	    0.00
     74.5500	  163.00	    7.55	 -727.55	    0.00
     74.6000	  184.00	   11.23	 -710.23	    0.00
     74.6500	  181.00	   15.35	 -717.35	    0.00
     74.7000	  192.00	   18.99	 -709.99	    0.00
     74.7500	  166.00	   20.91	 -737.91	    0.00
     74.8000	  168.00	   20.23	 -735.23	    0.00
     74.8500	  200.00	   17.27	 -700.27	    0.00
     74.9000	  188.00	   13.25	 -708.25	    0.00
     74.9500	  190.00	    9.27	 -702.27	    0.00
     75.0000	  211.00	    6.00	 -678.00	    0.00
     75.0500	  172.00	    3.68	 -714.68	    0.00
     75.1000	  198.00	    2.23	 -687.23	    0.00
     75.1500	  230.00	    1.39	 -654.39	    0.00
     75.2000	  264.00	    0.94	 -619.94	    0.00
     75.2500	  227.00	    0.70	 -656.70	    0.00
     75.3000	  289.00	    0.55	 -594.55	    0.00
     75.3500	  290.00	    0.46	 -593.46	    0.00
     75.4000	  284.00	    0.39	 -599.39	    0.00
     75.4500	  250.00	    0.34	 -633.34	    0.00
     75.5000	  233.00	    0.30	 -650.30	    0.00
     75.5500	  239.00	    0.26	 -644.26	    0.00
     75.6000	  239.00	    0.23	 -644.23	    0.00
     75.6500	  204.00	    0.21	 -679.21	    0.00
     75.7000	  178.00	    0.19	 -705.19	    0.00
     75.7500	  189.00	    0.17	 -694.17	    0.00
     75.8000	  202.00	    0.15	 -681.15	    0.00
     75.8500	  181.00	    0.14	 -702.14	    0.00
     75.9000	  190.00	    0.13	 -693.13	    0.00
     75.9500	  177.00	    0.12	 -706.12	    0.00
     76.0000	  199.00	    0.11	 -684.11	    0.00
     76.0500	  193.00	    0.10	 -690.10	    0.00
     76.1000	  170.00	    0.09	 -713.09	    0.00
     76.1500	  170.00	    0.09	 -713.09	    0.00
     76.2000	  165.00	    0.08	 -718.08	    0.00
     76.2500	  192.00	    0.08	 -691.08	    0.00
     76.3000	  171.00	    0.07	 -712.07	    0.00
     76.3500	  169.00	    0.07	 -714.07	    0.00
     76.4000	  168.00	    0.06	 -715.06	    0.00
     76.4500	  183.00	    0.06	 -700.06	    0.00
     76.5000	  173.00	    0.00	 -710.00	    0.00
     76.5500	  178.00	    0.00	 -705.00	    0.00
     76.6000	  175.00	    0.00	 -708.00	    0.00
     76.6500	  191.00	    0.00	 -692.00	    0.00
     76.7000	  166.00	    0.00	 -717.00	    0.00
     76.7500	  187.00	    0.00	 -696.00	    0.00
     76.8000	  191.00	    0.00	 -692.00	    0.00
     76.8500	  184.00	    0.00	 -699.00	    0.00
     76.9000	  168.00	    0.00	 -715.00	    0.00
     76.9500	  177.00	    0.00	 -706.00	    0.00
     77.0000	  205.00	    0.00	 -678.00	    0.00
     77.0500	  188.00	    0.00	 -695.00	    0.00
     77.1000	  166.00	    0.00	 -717.00	    0.00
     77.1500	  180.00	    0.00	 -703.00	    0.00
     77.2000	  179.00	    0.00	 -704.00	    0.00
     77.2500	  179.00	    0.00	 -704.00	    0.00
     77.3000	  163.00	    0.00	 -720.00	    0.00
     77.3500	  188.00	    0.00	 -695.00	    0.00
     77.4000	  169.00	    0.49	 -714.49	    0.00
     77.4500	  179.00	    0.52	 -704.52	    0.00
     77.5000	  169.00	    0.55	 -714.55	    0.00
     77.5500	  201.00	    0.58	 -682.58	    0.00
     77.6000	  184.00	    0.62	 -699.62	    0.00
     77.6500	  187.00	    0.67	 -696.67	    0.00
     77.7000	  207.00	    0.71	 -676.71	    0.00
     77.7500	  170.00	    0.77	 -713.77	    0.00
     77.8000	  193.00	    0.82	 -690.82	    0.00
     77.8500	  189.00	    0.89	 -694.89	    0.00
     77.9000	  205.00	    0.97	 -678.97	    0.00
     77.9500	  183.00	    1.05	 -701.05	    0.00
     78.0000	  179.00	    1.14	 -705.14	    0.00
     78.0500	  188.00	    1.25	 -696.25	    0.00
     78.1000	  194.00	    1.38	 -690.38	    0.00
     78.1500	  220.00	    1.52	 -664.52	    0.00
     78.2000	  195.00	    1.69	 -689.69	    0.00
     78.2500	  176.00	    1.89	 -708.89	    0.00
     78.3000	  208.00	    2.12	 -677.12	    0.00
     78.3500	  185.00	    2.40	 -700.40	    0.00
     78.4000	  217.00	    2.73	 -668.73	    0.00
     78.4500	  203.00	    3.15	 -683.15	    0.00
     78.5000	  200.00	    3.67	 -686.67	    0.00
     78.5500	  196.00	    4.39	 -691.39	    0.00
     78.6000	  197.00	    5.45	 -691.45	    0.00
     78.6500	  217.00	    7.24	 -673.24	    0.00
     78.7000	  179.00	   10.49	 -714.49	    0.00
     78.7500	  184.00	   16.47	 -715.47	    0.00
     78.8000	  187.00	   26.97	 -722.97	    0.00
     78.8500	  219.00	   43.86	 -707.86	    0.00
     78.9000	  193.00	   68.14	 -758.14	    0.00
     78.9500	  214.00	   98.61	 -767.61	    0.00
     79.0000	  207.00	  130.82	 -806.82	    0.00
     79.0500	  199.00	  156.82	 -840.82	    0.00
     79.1000	  224.00	  166.89	 -825.89	    0.00
     79.1500	  244.00	  156.29	 -795.29	    0.00
     79.2000	  217.00	  130.02	 -796.02	    0.00
     79.2500	  266.00	   97.76	 -714.76	    0.00
     79.3000	  281.00	   67.40	 -669.40	    0.00
     79.3500	  425.00	   43.33	 -501.33	    0.00
     79.4000	  527.00	   26.62	 -382.62	    0.00
     79.4500	  735.00	   16.27	 -164.27	    0.00
     79.5000	 1057.00	   10.38	  163.62	    0.00
     79.5500	 1483.00	    7.18	  592.82	    0.00
     79.6000	 1955.00	    5.42	 1066.58	    0.00
     79.6500	 2315.00	    4.36	 1427.64	    0.00
     79.7000	 2552.00	    3.66	 1665.34	    0.00
     79.7500	 2506.00	    3.13	 1619.87	    0.00
     79.8000	 2261.00	    2.72	 1375.28	    0.00
     79.8500	 1842.00	    2.39	  956.61	    0.00
     79.9000	 1328.00	    2.11	  442.89	    0.00
     79.9500	  911.00	    1.88	   26.12	    0.00
     80.0000	  592.00	    1.69	 -292.69	    0.00
     80.0500	  430.00	    1.52	 -454.52	    0.00
     80.1000	  312.00	    1.37	 -572.37	    0.00
     80.1500	  284.00	    1.25	 -600.25	    0.00
     80.2000	  285.00	    1.14	 -599.14	    0.00
     80.2500	  247.00	    1.05	 -637.05	    0.00
     80.3000	  250.00	    0.96	 -633.96	    0.00
     80.3500	  231.00	    0.89	 -652.89	    0.00
     80.4000	  272.00	    0.82	 -611.82	    0.00
     80.4500	  235.00	    0.76	 -648.76	    0.00
     80.5000	  188.00	    0.71	 -695.71	    0.00
     80.5500	  223.00	    0.66	 -660.66	    0.00
     80.6000	  218.00	    0.62	 -665.62	    0.00
     80.6500	  221.00	    0.58	 -662.58	    0.00
     80.7000	  210.00	    0.55	 -673.55	    0.00
     80.7500	  199.00	    0.51	 -684.51	    0.00
     80.8000	  207.00	    0.49	 -676.49	    0.00
     80.8500	  208.00	    0.00	 -675.00	    0.00
     80.9000	  178.00	    0.00	 -705.00	    0.00
     80.9500	  194.00	    0.00	 -689.00	    0.00
     81.0000	  202.00	    0.00	 -681.00	    0.00
     81.0500	  226.00	    0.00	 -657.00	    0.00
     81.1000	  209.00	    0.00	 -674.00	    0.00
     81.1500	  194.00	    0.00	 -689.00	    0.00
     81.2000	  179.00	    0.00	 -704.00	    0.00
     81.2500	  183.00	    0.00	 -700.00	    0.00
     81.3000	  187.00	    0.00	 -696.00	    0.00
     81.3500	  198.00	    0.00	 -685.00	    0.00
     81.4000	  198.00	    0.00	 -685.00	    0.00
     81.4500	  209.00	    0.00	 -674.00	    0.00
     81.5000	  187.00	    0.00	 -696.00	    0.00
     81.5500	  211.00	    0.00	 -672.00	    0.00
     81.6000	  198.00	    0.00	 -685.00	    0.00
     81.6500	  164.00	    0.15	 -719.15	    0.00
     81.7000	  200.00	    0.16	 -683.16	    0.00
     81.7500	  212.00	    0.16	 -671.16	    0.00
     81.8000	  197.00	    0.18	 -686.18	    0.00
     81.8500	  191.00	    0.19	 -692.19	    0.00
     81.9000	  195.00	    0.20	 -688.20	    0.00
     81.9500	  217.00	    0.21	 -666.21	    0.00
     82.0000	  189.00	    0.23	 -694.23	    0.00
     82.0500	  182.00	    0.25	 -701.25	    0.00
     82.1000	  174.00	    0.27	 -709.27	    0.00
     82.1500	  182.00	    0.29	 -701.29	    0.00
     82.2000	  199.00	    0.31	 -684.31	    0.00
     82.2500	  179.00	    0.34	 -704.34	    0.00
     82.3000	  197.00	    0.37	 -686.37	    0.00
     82.3500	  228.00	    0.41	 -655.41	    0.00
     82.4000	  170.00	    0.45	 -713.45	    0.00
     82.4500	  203.00	    0.50	 -680.50	    0.00
     82.5000	  232.00	    0.55	 -651.55	    0.00
     82.5500	  178.00	    0.62	 -705.62	    0.00
     82.6000	  216.00	    0.70	 -667.70	    0.00
     82.6500	  205.00	    0.79	 -678.79	    0.00
     82.7000	  185.00	    0.91	 -698.91	    0.00
     82.7500	  212.00	    1.05	 -672.05	    0.00
     82.8000	  199.00	    1.24	 -685.24	    0.00
     82.8500	  169.00	    1.52	 -715.52	    0.00
     82.9000	  165.00	    1.95	 -719.95	    0.00
     82.9500	  203.00	    2.71	 -682.71	    0.00
     83.0000	  215.00	    4.10	 -672.10	    0.00
     83.0500	  199.00	    6.58	 -690.58	    0.00
     83.1000	  200.00	   10.69	 -693.69	    0.00
     83.1500	  174.00	   16.85	 -725.85	    0.00
     83.2000	  192.00	   25.05	 -716.05	    0.00
     83.2500	  206.00	   34.46	 -711.46	    0.00
     83.3000	  191.00	   43.25	 -735.25	    0.00
     83.3500	  203.00	   48.75	 -728.75	    0.00
     83.4000	  210.00	   48.62	 -721.62	    0.00
     83.4500	  194.00	   42.92	 -731.92	    0.00
     83.5000	  245.00	   34.05	 -672.05	    0.00
     83.5500	  242.00	   24.67	 -665.67	    0.00
     83.6000	  255.00	   16.55	 -644.55	    0.00
     83.6500	  310.00	   10.47	 -583.47	    0.00
     83.7000	  408.00	    6.45	 -481.45	    0.00
     83.7500	  498.00	    4.03	 -389.03	    0.00
     83.8000	  729.00	    2.67	 -156.67	    0.00
     83.8500	  934.00	    1.93	   49.07	    0.00
     83.9000	 1121.00	    1.50	  236.50	    0.00
     83.9500	 1320.00	    1.23	  435.77	    0.00
     84.0000	 1476.00	    1.05	  591.95	    0.00
     84.0500	 1276.00	    0.90	  392.10	    0.00
     84.1000	 1129.00	    0.79	  245.21	    0.00
     84.1500	  887.00	    0.70	    3.30	    0.00
     84.2000	  643.00	    0.62	 -240.62	    0.00
     84.2500	  490.00	    0.55	 -393.55	    0.00
     84.3000	  343.00	    0.50	 -540.50	    0.00
     84.3500	  284.00	    0.45	 -599.45	    0.00
     84.4000	  263.00	    0.41	 -620.41	    0.00
     84.4500	  229.00	    0.37	 -654.37	    0.00
     84.5000	  235.00	    0.34	 -648.34	    0.00
     84.5500	  246.00	    0.31	 -637.31	    0.00
     84.6000	  205.00	    0.29	 -678.29	    0.00
     84.6500	  217.00	    0.27	 -666.27	    0.00
     84.7000	  217.00	    0.25	 -666.25	    0.00
     84.7500	  197.00	    0.23	 -686.23	    0.00
     84.8000	  195.00	    0.21	 -688.21	    0.00
     84.8500	  232.00	    0.20	 -651.20	    0.00
     84.9000	  182.00	    0.19	 -701.19	    0.00
     84.9500	  192.00	    0.17	 -691.17	    0.00
     85.0000	  172.00	    0.16	 -711.16	    0.00
     85.0500	  191.00	    0.15	 -692.15	    0.00
     85.1000	  200.00	    0.15	 -683.15	    0.00
     85.1500	  186.00	    0.00	 -697.00	    0.00
     85.2000	  190.00	    0.00	 -693.00	    0.00
     85.2500	  211.00	    0.00	 -672.00	    0.00
     85.3000	  184.00	    0.00	 -699.00	    0.00
     85.3500	  180.00	    0.00	 -703.00	    0.00
     85.4000	  182.00	    0.00	 -701.00	    0.00
     85.4500	  184.00	    0.00	 -699.00	    0.00
     85.5000	  175.00	    0.00	 -708.00	    0.00
     85.5500	  176.00	    0.00	 -707.00	    0.00
     85.6000	  166.00	    0.00	 -717.00	    0.00
     85.6500	  180.00	    0.00	 -703.00	    0.00
     85.7000	  195.00	    0.00	 -688.00	    0.00
     85.7500	  183.00	    0.00	 -700.00	    0.00
     85.8000	  182.00	    0.00	 -701.00	    0.00
     85.8500	  168.00	    0.04	 -715.04	    0.00
     85.9000	  177.00	    0.05	 -706.05	    0.00
     85.9500	  190.00	    0.05	 -693.05	    0.00
     86.0000	  178.00	    0.05	 -705.05	    0.00
     86.0500	  180.00	    0.06	 -703.06	    0.00
     86.1000	  181.00	    0.06	 -702.06	    0.00
     86.1500	  177.00	    0.06	 -706.06	    0.00
     86.2000	  171.00	    0.07	 -712.07	    0.00
     86.2500	  193.00	    0.07	 -690.07	    0.00
     86.3000	  181.00	    0.08	 -702.08	    0.00
     86.3500	  180.00	    0.09	 -703.09	    0.00
     86.4000	  198.00	    0.09	 -685.09	    0.00
     86.4500	  177.00	    0.10	 -706.10	    0.00
     86.5000	  161.00	    0.11	 -722.11	    0.00
     86.5500	  166.00	    0.12	 -717.12	    0.00
     86.6000	  176.00	    0.13	 -707.13	    0.00
     86.6500	  190.00	    0.14	 -693.14	    0.00
     86.7000	  185.00	    0.16	 -698.16	    0.00
     86.7500	  173.00	    0.18	 -710.18	    0.00
     86.8000	  176.00	    0.20	 -707.20	    0.00
     86.8500	  159.00	    0.23	 -724.23	    0.00
     86.9000	  188.00	    0.26	 -695.26	    0.00
     86.9500	  199.00	    0.29	 -684.29	    0.00
     87.0000	  180.00	    0.34	 -703.34	    0.00
     87.0500	  164.00	    0.41	 -719.41	    0.00
     87.1000	  180.00	    0.51	 -703.51	    0.00
     87.1500	  190.00	    0.67	 -693.67	    0.00
     87.2000	  179.00	    0.95	 -704.95	    0.00
     87.2500	  177.00	    1.46	 -707.46	    0.00
     87.3000	  183.00	    2.34	 -702.34	    0.00
     87.3500	  174.00	    3.74	 -712.74	    0.00
     87.4000	  164.00	    5.75	 -724.75	    0.00
     87.4500	  165.00	    8.29	 -726.29	    0.00
     87.5000	  185.00	   11.06	 -709.06	    0.00
     87.5500	  191.00	   13.45	 -705.45	    0.00
     87.6000	  181.00	   14.68	 -716.68	    0.00
     87.6500	  143.00	   14.22	 -754.22	    0.00
     87.7000	  170.00	   12.27	 -725.27	    0.00
     87.7500	  150.00	    9.59	 -742.59	    0.00
     87.8000	  187.00	    6.88	 -702.88	    0.00
     87.8500	  181.00	    4.61	 -706.61	    0.00
     87.9000	  171.00	    2.93	 -714.93	    0.00
     87.9500	  179.00	    1.82	 -705.82	    0.00
     88.0000	  146.00	    1.16	 -738.16	    0.00
     88.0500	  175.00	    0.78	 -708.78	    0.00
     88.1000	  182.00	    0.57	 -701.57	    0.00
     88.1500	  176.00	    0.45	 -707.45	    0.00
     88.2000	  164.00	    0.37	 -719.37	    0.00
     88.2500	  152.00	    0.32	 -731.32	    0.00
     88.3000	  188.00	    0.27	 -695.27	    0.00
     88.3500	  152.00	    0.24	 -731.24	    0.00
     88.4000	  172.00	    0.21	 -711.21	    0.00
     88.4500	  140.00	    0.19	 -743.19	    0.00
     88.5000	  176.00	    0.17	 -707.17	    0.00
     88.5500	  168.00	    0.15	 -715.15	    0.00
     88.6000	  197.00	    0.14	 -686.14	    0.00
     88.6500	  190.00	    0.12	 -693.12	    0.00
     88.7000	  176.00	    0.11	 -707.11	    0.00
     88.7500	  167.00	    0.10	 -716.10	    0.00
     88.8000	  182.00	    0.10	 -701.10	    0.00
     88.8500	  175.00	    0.09	 -708.09	    0.00
     88.9000	  154.00	    0.08	 -729.08	    0.00
     88.9500	  168.00	    0.08	 -715.08	    0.00
     89.0000	  187.00	    0.07	 -696.07	    0.00
     89.0500	  163.00	    0.07	 -720.07	    0.00
     89.1000	  173.00	    0.06	 -710.06	    0.00
     89.1500	  161.00	    0.06	 -722.06	    0.00
     89.2000	  170.00	    0.05	 -713.05	    0.00
     89.2500	  178.00	    0.05	 -705.05	    0.00
     89.3000	  174.00	    0.05	 -709.05	    0.00
     89.3500	  172.00	    0.05	 -711.05	    0.00
     89.4000	  167.00	    0.04	 -716.04	    0.00
     89.4500	  168.00	    0.00	 -715.00	    0.00
     89.5000	  164.00	    0.00	 -719.00	    0.00
     89.5500	  183.00	    0.00	 -700.00	    0.00
     89.6000	  141.00	    0.00	 -742.00	    0.00
     89.6500	  173.00	    0.00	 -710.00	    0.00
     89.7000	  190.00	    0.00	 -693.00	    0.00
     89.7500	  180.00	    0.00	 -703.00	    0.00
     89.8000	  162.00	    0.00	 -721.00	    0.00
     89.8500	  166.00	    0.00	 -717.00	    0.00
     89.9000	  164.00	    0.00	 -719.00	    0.00
     89.9500	  166.00	    0.00	 -717.00	    0.00
     90.0000	  170.00	    0.00	 -713.00	    0.00
     90.0500	  176.00	    0.08	 -707.08	    0.00
     90.1000	  181.00	    0.09	 -702.09	    0.00
     90.1500	  175.00	    0.09	 -708.09	    0.00
     90.2000	  161.00	    0.10	 -722.10	    0.00
     90.2500	  170.00	    0.10	 -713.10	    0.00
     90.3000	  166.00	    0.11	 -717.11	    0.00
     90.3500	  175.00	    0.12	 -708.12	    0.00
     90.4000	  171.00	    0.13	 -712.13	    0.00
     90.4500	  172.00	    0.13	 -711.13	    0.00
     90.5000	  183.00	    0.14	 -700.14	    0.00
     90.5500	  165.00	    0.16	 -718.16	    0.00
     90.6000	  181.00	    0.17	 -702.17	    0.00
     90.6500	  168.00	    0.18	 -715.18	    0.00
     90.7000	  179.00	    0.20	 -704.20	    0.00
     90.7500	  157.00	    0.22	 -726.22	    0.00
     90.8000	  172.00	    0.24	 -711.24	    0.00
     90.8500	  187.00	    0.26	 -696.26	    0.00
     90.9000	  181.00	    0.29	 -702.29	    0.00
     90.9500	  163.00	    0.32	 -720.32	    0.00
     91.0000	  163.00	    0.36	 -720.36	    0.00
     91.0500	  166.00	    0.40	 -717.40	    0.00
     91.1000	  161.00	    0.46	 -722.46	    0.00
     91.1500	  167.00	    0.52	 -716.52	    0.00
     91.2000	  148.00	    0.60	 -735.60	    0.00
     91.2500	  175.00	    0.71	 -708.71	    0.00
     91.3000	  195.00	    0.87	 -688.87	    0.00
     91.3500	  181.00	    1.12	 -703.11	    0.00
     91.4000	  173.00	    1.54	 -711.54	    0.00
     91.4500	  160.00	    2.29	 -725.29	    0.00
     91.5000	  180.00	    3.59	 -706.59	    0.00
     91.5500	  183.00	    5.69	 -705.69	    0.00
     91.6000	  156.00	    8.80	 -735.80	    0.00
     91.6500	  163.00	   12.92	 -732.92	    0.00
     91.7000	  175.00	   17.70	 -725.70	    0.00
     91.7500	  189.00	   22.34	 -716.34	    0.00
     91.8000	  181.00	   25.62	 -727.62	    0.00
     91.8500	  186.00	   26.31	 -723.31	    0.00
     91.9000	  184.00	   24.09	 -723.09	    0.00
     91.9500	  187.00	   19.90	 -715.90	    0.00
     92.0000	  191.00	   15.06	 -707.06	    0.00
     92.0500	  203.00	   10.57	 -690.57	    0.00
     92.1000	  194.00	    6.98	 -695.98	    0.00
     92.1500	  237.00	    4.44	 -650.44	    0.00
     92.2000	  242.00	    2.80	 -643.80	    0.00
     92.2500	  307.00	    1.83	 -577.83	    0.00
     92.3000	  299.00	    1.28	 -585.28	    0.00
     92.3500	  340.00	    0.97	 -543.97	    0.00
     92.4000	  357.00	    0.78	 -526.78	    0.00
     92.4500	  354.00	    0.65	 -529.65	    0.00
     92.5000	  370.00	    0.56	 -513.56	    0.00
     92.5500	  375.00	    0.49	 -508.49	    0.00
     92.6000	  303.00	    0.43	 -580.43	    0.00
     92.6500	  264.00	    0.38	 -619.38	    0.00
     92.7000	  243.00	    0.34	 -640.34	    0.00
     92.7500	  207.00	    0.30	 -676.30	    0.00
     92.8000	  199.00	    0.27	 -684.27	    0.00
     92.8500	  180.00	    0.25	 -703.25	    0.00
     92.9000	  202.00	    0.23	 -681.23	    0.00
     92.9500	  188.00	    0.21	 -695.21	    0.00
     93.0000	  183.00	    0.19	 -700.19	    0.00
     93.0500	  170.00	    0.17	 -713.17	    0.00
     93.1000	  180.00	    0.16	 -703.16	    0.00
     93.1500	  182.00	    0.15	 -701.15	    0.00
     93.2000	  186.00	    0.14	 -697.14	    0.00
     93.2500	  196.00	    0.13	 -687.13	    0.00
     93.3000	  177.00	    0.12	 -706.12	    0.00
     93.3500	  198.00	    0.11	 -685.11	    0.00
     93.4000	  182.00	    0.11	 -701.11	    0.00
     93.4500	  183.00	    0.10	 -700.10	    0.00
     93.5000	  184.00	    0.09	 -699.09	    0.00
     93.5500	  181.00	    0.09	 -702.09	    0.00
     93.6000	  190.00	    0.08	 -693.08	    0.00
     93.6500	  176.00	    0.08	 -707.08	    0.00
     93.7000	  197.00	    0.00	 -686.00	    0.00
     93.7500	  174.00	    0.00	 -709.00	    0.00
     93.8000	  159.00	    0.00	 -724.00	    0.00
     93.8500	  171.00	    0.00	 -712.00	    0.00
     93.9000	  159.00	    0.00	 -724.00	    0.00
     93.9500	  170.00	    0.00	 -713.00	    0.00
     94.0000	  172.00	    0.00	 -711.00	    0.00
     94.0500	  159.00	    0.00	 -724.00	    0.00
     94.1000	  160.00	    0.00	 -723.00	    0.00
     94.1500	  173.00	    0.00	 -710.00	    0.00
     94.2000	  147.00	    0.00	 -736.00	    0.00
     94.2500	  143.00	    0.00	 -740.00	    0.00
     94.3000	  150.00	    0.00	 -733.00	    0.00
     94.3500	  155.00	    0.00	 -728.00	    0.00
     94.4000	  160.00	    0.00	 -723.00	    0.00
     94.4500	  155.00	    0.00	 -728.00	    0.00
     94.5000	  176.00	    0.00	 -707.00	    0.00
     94.5500	  198.00	    0.00	 -685.00	    0.00
     94.6000	  179.00	    0.00	 -704.00	    0.00
     94.6500	  161.00	    0.00	 -722.00	    0.00
     94.7000	  175.00	    0.00	 -708.00	    0.00
     94.7500	  157.00	    0.00	 -726.00	    0.00
     94.8000	  173.00	    0.00	 -710.00	    0.00
     94.8500	  168.00	    0.00	 -715.00	    0.00
     94.9000	  171.00	    0.00	 -712.00	    0.00
     94.9500	  173.00	    0.00	 -710.00	    0.00
     95.0000	  183.00	    0.00	 -700.00	    0.00
     95.0500	  148.00	    0.00	 -735.00	    0.00
     95.1000	  160.00	    0.00	 -723.00	    0.00
     95.1500	  171.00	    0.00	 -712.00	    0.00
     95.2000	  167.00	    0.00	 -716.00	    0.00
     95.2500	  195.00	    0.00	 -688.00	    0.00
     95.3000	  175.00	    0.00	 -708.00	    0.00
     95.3500	  200.00	    0.00	 -683.00	    0.00
     95.4000	  176.00	    0.00	 -707.00	    0.00
     95.4500	  175.00	    0.00	 -708.00	    0.00
     95.5000	  194.00	    0.00	 -689.00	    0.00
     95.5500	  190.00	    0.00	 -693.00	    0.00
     95.6000	  154.00	    0.00	 -729.00	    0.00
     95.6500	  166.00	    0.00	 -717.00	    0.00
     95.7000	  164.00	    0.00	 -719.00	    0.00
     95.7500	  166.00	    0.00	 -717.00	    0.00
     95.8000	  162.00	    0.00	 -721.00	    0.00
     95.8500	  183.00	    0.00	 -700.00	    0.00
     95.9000	  149.00	    0.00	 -734.00	    0.00
     95.9500	  171.00	    0.00	 -712.00	    0.00
     96.0000	  165.00	    0.00	 -718.00	    0.00
     96.0500	  181.00	    0.00	 -702.00	    0.00
     96.1000	  188.00	    0.00	 -695.00	    0.00
     96.1500	  184.00	    0.00	 -699.00	    0.00
     96.2000	  162.00	    0.00	 -721.00	    0.00
     96.2500	  163.00	    0.00	 -720.00	    0.00
     96.3000	  165.00	    0.00	 -718.00	    0.00
     96.3500	  183.00	    0.00	 -700.00	    0.00
     96.4000	  182.00	    0.00	 -701.00	    0.00
     96.4500	  156.00	    0.00	 -727.00	    0.00
     96.5000	  159.00	    0.00	 -724.00	    0.00
     96.5500	  139.00	    0.00	 -744.00	    0.00
     96.6000	  165.00	    0.00	 -718.00	    0.00
     96.6500	  164.00	    0.00	 -719.00	    0.00
     96.7000	  184.00	    0.00	 -699.00	    0.00
     96.7500	  159.00	    0.00	 -724.00	    0.00
     96.8000	  159.00	    0.00	 -724.00	    0.00
     96.8500	  155.00	    0.00	 -728.00	    0.00
     96.9000	  162.00	    0.00	 -721.00	    0.00
     96.9500	  157.00	    0.00	 -726.00	    0.00
     97.0000	  160.00	    0.00	 -723.00	    0.00
     97.0500	  168.00	    0.00	 -715.00	    0.00
     97.1000	  168.00	    0.00	 -715.00	    0.00
     97.1500	  151.00	    0.00	 -732.00	    0.00
     97.2000	  162.00	    0.00	 -721.00	    0.00
     97.2500	  163.00	    0.00	 -720.00	    0.00
     97.3000	  166.00	    0.00	 -717.00	    0.00
     97.3500	  161.00	    0.00	 -722.00	    0.00
     97.4000	  158.00	    0.00	 -725.00	    0.00
     97.4500	  151.00	    0.00	 -732.00	    0.00
     97.5000	  163.00	    0.00	 -720.00	    0.00
     97.5500	  179.00	    0.00	 -704.00	    0.00
     97.6000	  166.00	    0.00	 -717.00	    0.00
     97.6500	  155.00	    0.00	 -728.00	    0.00
     97.7000	  160.00	    0.00	 -723.00	    0.00
     97.7500	  152.00	    0.00	 -731.00	    0.00
     97.8000	  184.00	    0.00	 -699.00	    0.00
     97.8500	  175.00	    0.00	 -708.00	    0.00
     97.9000	  161.00	    0.00	 -722.00	    0.00
     97.9500	  166.00	    0.00	 -717.00	    0.00
     98.0000	  150.00	    0.00	 -733.00	    0.00
     98.0500	  179.00	    0.00	 -704.00	    0.00
     98.1000	  184.00	    0.00	 -699.00	    0.00
     98.1500	  151.00	    0.00	 -732.00	    0.00
     98.2000	  173.00	    0.00	 -710.00	    0.00
     98.2500	  164.00	    0.00	 -719.00	    0.00
     98.3000	  178.00	    0.00	 -705.00	    0.00
     98.3500	  176.00	    0.00	 -707.00	    0.00
     98.4000	  162.00	    0.07	 -721.07	    0.00
     98.4500	  173.00	    0.08	 -710.08	    0.00
     98.5000	  154.00	    0.08	 -729.08	    0.00
     98.5500	  184.00	    0.09	 -699.09	    0.00
     98.6000	  142.00	    0.09	 -741.09	    0.00
     98.6500	  184.00	    0.10	 -699.10	    0.00
     98.7000	  156.00	    0.10	 -727.10	    0.00
     98.7500	  177.00	    0.11	 -706.11	    0.00
     98.8000	  163.00	    0.12	 -720.12	    0.00
     98.8500	  173.00	    0.12	 -710.12	    0.00
     98.9000	  180.00	    0.13	 -703.13	    0.00
     98.9500	  181.00	    0.14	 -702.14	    0.00
     99.0000	  165.00	    0.15	 -718.15	    0.00
     99.0500	  177.00	    0.16	 -706.16	    0.00
     99.1000	  155.00	    0.18	 -728.18	    0.00
     99.1500	  147.00	    0.19	 -736.19	    0.00
     99.2000	  163.00	    0.21	 -720.21	    0.00
     99.2500	  172.00	    0.23	 -711.23	    0.00
     99.3000	  145.00	    0.25	 -738.25	    0.00
     99.3500	  156.00	    0.27	 -727.27	    0.00
     99.4000	  161.00	    0.30	 -722.30	    0.00
     99.4500	  189.00	    0.34	 -694.34	    0.00
     99.5000	  182.00	    0.37	 -701.37	    0.00
     99.5500	  172.00	    0.42	 -711.42	    0.00
     99.6000	  176.00	    0.48	 -707.48	    0.00
     99.6500	  166.00	    0.54	 -717.54	    0.00
     99.7000	  190.00	    0.63	 -693.63	    0.00
     99.7500	  154.00	    0.75	 -729.75	    0.00
     99.8000	  198.00	    0.93	 -685.93	    0.00
     99.8500	  152.00	    1.22	 -732.22	    0.00
     99.9000	  160.00	    1.70	 -724.70	    0.00
     99.9500	  174.00	    2.53	 -711.53	    0.00
    100.0000	  187.00	    3.88	 -699.88	    0.00
    100.0500	  178.00	    5.94	 -710.94	    0.00
    100.1000	  149.00	    8.84	 -742.84	    0.00
    100.1500	  171.00	   12.50	 -724.50	    0.00
    100.2000	  185.00	   16.62	 -714.62	    0.00
    100.2500	  207.00	   20.55	 -696.55	    0.00
    100.3000	  184.00	   23.34	 -722.34	    0.00
    100.3500	  187.00	   24.04	 -720.04	    0.00
    100.4000	  231.00	   22.38	 -674.38	    0.00
    100.4500	  226.00	   18.99	 -675.99	    0.00
    100.5000	  203.00	   14.88	 -694.88	    0.00
    100.5500	  214.00	   10.89	 -679.89	    0.00
    100.6000	  279.00	    7.52	 -611.52	    0.00
    100.6500	  319.00	    4.98	 -568.98	    0.00
    100.7000	  397.00	    3.24	 -489.24	    0.00
    100.7500	  435.00	    2.13	 -450.13	    0.00
    100.8000	  539.00	    1.47	 -345.47	    0.00
    100.8500	  665.00	    1.08	 -219.08	    0.00
    100.9000	  724.00	    0.85	 -159.85	    0.00
    100.9500	  723.00	    0.70	 -160.70	    0.00
    101.0000	  783.00	    0.59	 -100.59	    0.00
    101.0500	  719.00	    0.51	 -164.51	    0.00
    101.1000	  585.00	    0.45	 -298.45	    0.00
    101.1500	  465.00	    0.40	 -418.40	    0.00
    101.2000	  371.00	    0.36	 -512.36	    0.00
    101.2500	  328.00	    0.32	 -555.32	    0.00
    101.3000	  277.00	    0.29	 -606.29	    0.00
    101.3500	  248.00	    0.26	 -635.26	    0.00
    101.4000	  209.00	    0.24	 -674.24	    0.00
    101.4500	  221.00	    0.22	 -662.22	    0.00
    101.5000	  198.00	    0.20	 -685.20	    0.00
    101.5500	  203.00	    0.19	 -680.18	    0.00
    101.6000	  188.00	    0.17	 -695.17	    0.00
    101.6500	  207.00	    0.16	 -676.16	    0.00
    101.7000	  195.00	    0.15	 -688.15	    0.00
    101.7500	  170.00	    0.14	 -713.14	    0.00
    101.8000	  192.00	    0.13	 -691.13	    0.00
    101.8500	  172.00	    0.12	 -711.12	    0.00
    101.9000	  185.00	    0.11	 -698.11	    0.00
    101.9500	  183.00	    0.11	 -700.11	    0.00
    102.0000	  211.00	    0.10	 -672.10	    0.00
    102.0500	  147.00	    0.09	 -736.09	    0.00
    102.1000	  176.00	    0.09	 -707.09	    0.00
    102.1500	  186.00	    0.08	 -697.08	    0.00
    102.2000	  171.00	    0.08	 -712.08	    0.00
    102.2500	  169.00	    0.08	 -714.08	    0.00
    102.3000	  192.00	    0.00	 -691.00	    0.00
    102.3500	  215.00	    0.00	 -668.00	    0.00
    102.4000	  146.00	    0.00	 -737.00	    0.00
    102.4500	  169.00	    0.00	 -714.00	    0.00
    102.5000	  188.00	    0.00	 -695.00	    0.00
    102.5500	  175.00	    0.00	 -708.00	    0.00
    102.6000	  165.00	    0.00	 -718.00	    0.00
    102.6500	  184.00	    0.06	 -699.06	    0.00
    102.7000	  172.00	    0.06	 -711.06	    0.00
    102.7500	  179.00	    0.07	 -704.07	    0.00
    102.8000	  163.00	    0.07	 -720.07	    0.00
    102.8500	  167.00	    0.07	 -716.07	    0.00
    102.9000	  179.00	    0.08	 -704.08	    0.00
    102.9500	  171.00	    0.08	 -712.08	    0.00
    103.0000	  181.00	    0.09	 -702.09	    0.00
    103.0500	  171.00	    0.09	 -712.09	    0.00
    103.1000	  180.00	    0.10	 -703.10	    0.00
    103.1500	  173.00	    0.10	 -710.10	    0.00
    103.2000	  167.00	    0.11	 -716.11	    0.00
    103.2500	  186.00	    0.12	 -697.12	    0.00
    103.3000	  176.00	    0.13	 -707.13	    0.00
    103.3500	  191.00	    0.14	 -692.14	    0.00
    103.4000	  170.00	    0.15	 -713.15	    0.00
    103.4500	  167.00	    0.16	 -716.16	    0.00
    103.5000	  165.00	    0.17	 -718.17	    0.00
    103.5500	  182.00	    0.19	 -701.19	    0.00
    103.6000	  173.00	    0.21	 -710.21	    0.00
    103.6500	  186.00	    0.23	 -697.23	    0.00
    103.7000	  161.00	    0.25	 -722.25	    0.00
    103.7500	  166.00	    0.28	 -717.28	    0.00
    103.8000	  157.00	    0.31	 -726.31	    0.00
    103.8500	  170.00	    0.34	 -713.34	    0.00
    103.9000	  183.00	    0.39	 -700.39	    0.00
    103.9500	  179.00	    0.44	 -704.44	    0.00
    104.0000	  164.00	    0.51	 -719.51	    0.00
    104.0500	  169.00	    0.60	 -714.60	    0.00
    104.1000	  161.00	    0.74	 -722.74	    0.00
    104.1500	  156.00	    0.95	 -727.95	    0.00
    104.2000	  163.00	    1.29	 -721.29	    0.00
    104.2500	  174.00	    1.87	 -710.87	    0.00
    104.3000	  161.00	    2.81	 -724.81	    0.00
    104.3500	  169.00	    4.23	 -718.23	    0.00
    104.4000	  158.00	    6.26	 -731.26	    0.00
    104.4500	  180.00	    8.89	 -711.89	    0.00
    104.5000	  171.00	   11.97	 -723.97	    0.00
    104.5500	  165.00	   15.13	 -733.13	    0.00
    104.6000	  163.00	   17.79	 -737.79	    0.00
    104.6500	  172.00	   19.22	 -730.22	    0.00
    104.7000	  164.00	   18.93	 -737.93	    0.00
    104.7500	  174.00	   17.02	 -726.02	    0.00
    104.8000	  178.00	   14.12	 -719.12	    0.00
    104.8500	  154.00	   10.93	 -739.93	    0.00
    104.9000	  176.00	    7.97	 -714.97	    0.00
    104.9500	  142.00	    5.53	 -746.53	    0.00
    105.0000	  163.00	    3.71	 -723.71	    0.00
    105.0500	  177.00	    2.46	 -708.46	    0.00
    105.1000	  194.00	    1.65	 -690.65	    0.00
    105.1500	  176.00	    1.16	 -708.16	    0.00
    105.2000	  207.00	    0.87	 -676.87	    0.00
    105.2500	  158.00	    0.69	 -725.69	    0.00
    105.3000	  151.00	    0.57	 -732.57	    0.00
    105.3500	  183.00	    0.49	 -700.49	    0.00
    105.4000	  159.00	    0.42	 -724.42	    0.00
    105.4500	  179.00	    0.37	 -704.37	    0.00
    105.5000	  170.00	    0.33	 -713.33	    0.00
    105.5500	  192.00	    0.30	 -691.30	    0.00
    105.6000	  160.00	    0.27	 -723.27	    0.00
    105.6500	  168.00	    0.24	 -715.24	    0.00
    105.7000	  183.00	    0.22	 -700.22	    0.00
    105.7500	  163.00	    0.20	 -720.20	    0.00
    105.8000	  162.00	    0.18	 -721.18	    0.00
    105.8500	  182.00	    0.17	 -701.17	    0.00
    105.9000	  154.00	    0.16	 -729.16	    0.00
    105.9500	  180.00	    0.14	 -703.14	    0.00
    106.0000	  168.00	    0.13	 -715.13	    0.00
    106.0500	  166.00	    0.12	 -717.12	    0.00
    106.1000	  155.00	    0.12	 -728.12	    0.00
    106.1500	  190.00	    0.11	 -693.11	    0.00
    106.2000	  165.00	    0.10	 -718.10	    0.00
    106.2500	  163.00	    0.10	 -720.10	    0.00
    106.3000	  183.00	    0.09	 -700.09	    0.00
    106.3500	  165.00	    0.08	 -718.08	    0.00
    106.4000	  173.00	    0.08	 -710.08	    0.00
    106.4500	  163.00	    0.08	 -720.08	    0.00
    106.5000	  151.00	    0.07	 -732.07	    0.00
    106.5500	  198.00	    0.07	 -685.07	    0.00
    106.6000	  165.00	    0.06	 -718.06	    0.00
    106.6500	  157.00	    0.06	 -726.06	    0.00
    106.7000	  159.00	    0.06	 -724.06	    0.00
    106.7500	  177.00	    0.00	 -706.00	    0.00
    106.8000	  156.00	    0.00	 -727.00	    0.00
    106.8500	  182.00	    0.00	 -701.00	    0.00
    106.9000	  181.00	    0.00	 -702.00	    0.00
    106.9500	  158.00	    0.04	 -725.04	    0.00
    107.0000	  176.00	    0.04	 -707.04	    0.00
    107.0500	  163.00	    0.04	 -720.04	    0.00
    107.1000	  156.00	    0.05	 -727.05	    0.00
    107.1500	  213.00	    0.05	 -670.05	    0.00
    107.2000	  172.00	    0.05	 -711.05	    0.00
    107.2500	  170.00	    0.05	 -713.05	    0.00
    107.3000	  168.00	    0.06	 -715.06	    0.00
    107.3500	  169.00	    0.06	 -714.06	    0.00
    107.4000	  169.00	    0.06	 -714.06	    0.00
    107.4500	  168.00	    0.07	 -715.07	    0.00
    107.5000	  155.00	    0.07	 -728.07	    0.00
    107.5500	  164.00	    0.08	 -719.08	    0.00
    107.6000	  168.00	    0.08	 -715.08	    0.00
    107.6500	  144.00	    0.09	 -739.09	    0.00
    107.7000	  166.00	    0.09	 -717.09	    0.00
    107.7500	  172.00	    0.10	 -711.10	    0.00
    107.8000	  156.00	    0.11	 -727.11	    0.00
    107.8500	  154.00	    0.12	 -729.12	    0.00
    107.9000	  143.00	    0.13	 -740.13	    0.00
    107.9500	  152.00	    0.14	 -731.14	    0.00
    108.0000	  174.00	    0.15	 -709.15	    0.00
    108.0500	  168.00	    0.16	 -715.16	    0.00
    108.1000	  164.00	    0.18	 -719.18	    0.00
    108.1500	  160.00	    0.20	 -723.20	    0.00
    108.2000	  176.00	    0.22	 -707.22	    0.00
    108.2500	  174.00	    0.25	 -709.25	    0.00
    108.3000	  175.00	    0.28	 -708.28	    0.00
    108.3500	  163.00	    0.32	 -720.32	    0.00
    108.4000	  169.00	    0.37	 -714.37	    0.00
    108.4500	  180.00	    0.43	 -703.43	    0.00
    108.5000	  159.00	    0.53	 -724.53	    0.00
    108.5500	  173.00	    0.68	 -710.68	    0.00
    108.6000	  148.00	    0.93	 -735.93	    0.00
    108.6500	  169.00	    1.33	 -715.33	    0.00
    108.7000	  167.00	    1.96	 -717.96	    0.00
    108.7500	  168.00	    2.90	 -717.90	    0.00
    108.8000	  175.00	    4.21	 -712.21	    0.00
    108.8500	  163.00	    5.88	 -725.88	    0.00
    108.9000	  164.00	    7.85	 -726.85	    0.00
    108.9500	  189.00	    9.90	 -703.90	    0.00
    109.0000	  192.00	   11.71	 -702.71	    0.00
    109.0500	  181.00	   12.86	 -714.86	    0.00
    109.1000	  202.00	   13.01	 -694.01	    0.00
    109.1500	  190.00	   12.10	 -705.10	    0.00
    109.2000	  163.00	   10.42	 -730.42	    0.00
    109.2500	  216.00	    8.40	 -675.40	    0.00
    109.3000	  220.00	    6.39	 -669.39	    0.00
    109.3500	  230.00	    4.62	 -657.62	    0.00
    109.4000	  255.00	    3.22	 -631.22	    0.00
    109.4500	  253.00	    2.18	 -632.18	    0.00
    109.5000	  273.00	    1.48	 -611.48	    0.00
    109.5500	  296.00	    1.02	 -588.02	    0.00
    109.6000	  300.00	    0.74	 -583.74	    0.00
    109.6500	  331.00	    0.57	 -552.57	    0.00
    109.7000	  347.00	    0.46	 -536.46	    0.00
    109.7500	  349.00	    0.38	 -534.38	    0.00
    109.8000	  341.00	    0.33	 -542.33	    0.00
    109.8500	  332.00	    0.29	 -551.29	    0.00
    109.9000	  298.00	    0.26	 -585.26	    0.00
    109.9500	  259.00	    0.23	 -624.23	    0.00
    110.0000	  227.00	    0.21	 -656.21	    0.00
    110.0500	  203.00	    0.19	 -680.19	    0.00
    110.1000	  222.00	    0.17	 -661.17	    0.00
    110.1500	  175.00	    0.15	 -708.15	    0.00
    110.2000	  183.00	    0.14	 -700.14	    0.00
    110.2500	  197.00	    0.13	 -686.13	    0.00
    110.3000	  176.00	    0.12	 -707.12	    0.00
    110.3500	  179.00	    0.11	 -704.11	    0.00
    110.4000	  176.00	    0.10	 -707.10	    0.00
    110.4500	  178.00	    0.10	 -705.10	    0.00
    110.5000	  210.00	    0.09	 -673.09	    0.00
    110.5500	  181.00	    0.08	 -702.08	    0.00
    110.6000	  167.00	    0.08	 -716.08	    0.00
    110.6500	  165.00	    0.07	 -718.07	    0.00
    110.7000	  172.00	    0.07	 -711.07	    0.00
    110.7500	  175.00	    0.06	 -708.06	    0.00
    110.8000	  177.00	    0.06	 -706.06	    0.00
    110.8500	  194.00	    0.06	 -689.06	    0.00
    110.9000	  171.00	    0.05	 -712.05	    0.00
    110.9500	  177.00	    0.05	 -706.05	    0.00
    111.0000	  188.00	    0.05	 -695.05	    0.00
    111.0500	  175.00	    0.05	 -708.05	    0.00
    111.1000	  194.00	    0.04	 -689.04	    0.00
    111.1500	  179.00	    0.04	 -704.04	    0.00
    111.2000	  171.00	    0.04	 -712.04	    0.00
    111.2500	  165.00	    0.00	 -718.00	    0.00
    111.3000	  183.00	    0.00	 -700.00	    0.00
    111.3500	  184.00	    0.21	 -699.21	    0.00
    111.4000	  187.00	    0.22	 -696.22	    0.00
    111.4500	  178.00	    0.23	 -705.23	    0.00
    111.5000	  172.00	    0.25	 -711.25	    0.00
    111.5500	  179.00	    0.26	 -704.26	    0.00
    111.6000	  205.00	    0.27	 -678.27	    0.00
    111.6500	  168.00	    0.28	 -715.28	    0.00
    111.7000	  161.00	    0.30	 -722.30	    0.00
    111.7500	  182.00	    0.32	 -701.32	    0.00
    111.8000	  167.00	    0.33	 -716.33	    0.00
    111.8500	  193.00	    0.35	 -690.35	    0.00
    111.9000	  188.00	    0.37	 -695.37	    0.00
    111.9500	  204.00	    0.39	 -679.39	    0.00
    112.0000	  179.00	    0.42	 -704.42	    0.00
    112.0500	  176.00	    0.44	 -707.44	    0.00
    112.1000	  185.00	    0.47	 -698.47	    0.00
    112.1500	  174.00	    0.51	 -709.51	    0.00
    112.2000	  175.00	    0.54	 -708.54	    0.00
    112.2500	  198.00	    0.58	 -685.58	    0.00
    112.3000	  199.00	    0.62	 -684.62	    0.00
    112.3500	  207.00	    0.67	 -676.67	    0.00
    112.4000	  204.00	    0.73	 -679.73	    0.00
    112.4500	  180.00	    0.79	 -703.79	    0.00
    112.5000	  137.00	    0.86	 -746.86	    0.00
    112.5500	  179.00	    0.94	 -704.94	    0.00
    112.6000	  183.00	    1.03	 -701.03	    0.00
    112.6500	  166.00	    1.13	 -718.13	    0.00
    112.7000	  166.00	    1.25	 -718.25	    0.00
    112.7500	  189.00	    1.39	 -695.39	    0.00
    112.8000	  181.00	    1.55	 -703.55	    0.00
    112.8500	  194.00	    1.76	 -690.76	    0.00
    112.9000	  171.00	    2.02	 -714.02	    0.00
    112.9500	  202.00	    2.37	 -683.37	    0.00
    113.0000	  216.00	    2.87	 -669.87	    0.00
    113.0500	  198.00	    3.64	 -688.64	    0.00
    113.1000	  189.00	    4.85	 -698.85	    0.00
    113.1500	  170.00	    6.76	 -719.76	    0.00
    113.2000	  182.00	    9.70	 -710.70	    0.00
    113.2500	  195.00	   14.03	 -702.03	    0.00
    113.3000	  177.00	   20.07	 -726.07	    0.00
    113.3500	  180.00	   27.93	 -730.93	    0.00
    113.4000	  195.00	   37.39	 -725.39	    0.00
    113.4500	  201.00	   47.80	 -729.80	    0.00
    113.5000	  203.00	   57.96	 -737.96	    0.00
    113.5500	  200.00	   66.18	 -749.18	    0.00
    113.6000	  209.00	   70.54	 -744.54	    0.00
    113.6500	  231.00	   69.78	 -721.78	    0.00
    113.7000	  281.00	   64.13	 -666.13	    0.00
    113.7500	  287.00	   55.16	 -651.16	    0.00
    113.8000	  324.00	   44.77	 -603.77	    0.00
    113.8500	  395.00	   34.54	 -522.54	    0.00
    113.9000	  457.00	   25.49	 -451.49	    0.00
    113.9500	  580.00	   18.15	 -321.15	    0.00
    114.0000	  685.00	   12.62	 -210.62	    0.00
    114.0500	  873.00	    8.73	  -18.73	    0.00
    114.1000	  964.00	    6.12	   74.88	    0.00
    114.1500	 1126.00	    4.44	  238.56	    0.00
    114.2000	 1266.00	    3.38	  379.62	    0.00
    114.2500	 1307.00	    2.71	  421.29	    0.00
    114.3000	 1221.00	    2.25	  335.75	    0.00
    114.3500	 1096.00	    1.94	  211.06	    0.00
    114.4000	  978.00	    1.69	   93.31	    0.00
    114.4500	  792.00	    1.50	  -92.50	    0.00
    114.5000	  600.00	    1.35	 -284.35	    0.00
    114.5500	  487.00	    1.21	 -397.21	    0.00
    114.6000	  358.00	    1.10	 -526.10	    0.00
    114.6500	  279.00	    1.00	 -605.00	    0.00
    114.7000	  265.00	    0.91	 -618.91	    0.00
    114.7500	  258.00	    0.84	 -625.84	    0.00
    114.8000	  244.00	    0.77	 -639.77	    0.00
    114.8500	  226.00	    0.71	 -657.71	    0.00
    114.9000	  227.00	    0.66	 -656.66	    0.00
    114.9500	  188.00	    0.61	 -695.61	    0.00
    115.0000	  195.00	    0.57	 -688.57	    0.00
    115.0500	  211.00	    0.53	 -672.53	    0.00
    115.1000	  205.00	    0.50	 -678.50	    0.00
    115.1500	  198.00	    0.46	 -685.46	    0.00
    115.2000	  218.00	    0.44	 -665.44	    0.00
    115.2500	  200.00	    0.41	 -683.41	    0.00
    115.3000	  200.00	    0.39	 -683.39	    0.00
    115.3500	  188.00	    0.37	 -695.37	    0.00
    115.4000	  209.00	    0.35	 -674.35	    0.00
    115.4500	  184.00	    0.33	 -699.33	    0.00
    115.5000	  186.00	    0.31	 -697.31	    0.00
    115.5500	  202.00	    0.29	 -681.29	    0.00
    115.6000	  183.00	    0.28	 -700.28	    0.00
    115.6500	  187.00	    0.27	 -696.27	    0.00
    115.7000	  182.00	    0.25	 -701.25	    0.00
    115.7500	  185.00	    0.24	 -698.24	    0.00
    115.8000	  213.00	    0.23	 -670.23	    0.00
    115.8500	  177.00	    0.22	 -706.22	    0.00
    115.9000	  199.00	    0.20	 -684.20	    0.00
    115.9500	  185.00	    0.20	 -698.20	    0.00
    116.0000	  184.00	    0.21	 -699.21	    0.00
    116.0500	  191.00	    0.22	 -692.22	    0.00
    116.1000	  173.00	    0.23	 -710.23	    0.00
    116.1500	  196.00	    0.24	 -687.24	    0.00
    116.2000	  201.00	    0.25	 -682.25	    0.00
    116.2500	  173.00	    0.27	 -710.27	    0.00
    116.3000	  178.00	    0.28	 -705.28	    0.00
    116.3500	  161.00	    0.29	 -722.29	    0.00
    116.4000	  208.00	    0.31	 -675.31	    0.00
    116.4500	  183.00	    0.33	 -700.33	    0.00
    116.5000	  183.00	    0.34	 -700.34	    0.00
    116.5500	  173.00	    0.36	 -710.36	    0.00
    116.6000	  184.00	    0.38	 -699.38	    0.00
    116.6500	  215.00	    0.41	 -668.41	    0.00
    116.7000	  201.00	    0.43	 -682.43	    0.00
    116.7500	  193.00	    0.46	 -690.46	    0.00
    116.8000	  190.00	    0.49	 -693.49	    0.00
    116.8500	  216.00	    0.52	 -667.52	    0.00
    116.9000	  195.00	    0.56	 -688.56	    0.00
    116.9500	  203.00	    0.60	 -680.60	    0.00
    117.0000	  183.00	    0.64	 -700.64	    0.00
    117.0500	  203.00	    0.69	 -680.69	    0.00
    117.1000	  187.00	    0.75	 -696.75	    0.00
    117.1500	  216.00	    0.81	 -667.81	    0.00
    117.2000	  191.00	    0.88	 -692.88	    0.00
    117.2500	  189.00	    0.96	 -694.96	    0.00
    117.3000	  189.00	    1.06	 -695.06	    0.00
    117.3500	  226.00	    1.16	 -658.16	    0.00
    117.4000	  185.00	    1.28	 -699.28	    0.00
    117.4500	  194.00	    1.43	 -690.43	    0.00
    117.5000	  185.00	    1.61	 -699.61	    0.00
    117.5500	  213.00	    1.83	 -671.83	    0.00
    117.6000	  197.00	    2.13	 -688.13	    0.00
    117.6500	  198.00	    2.54	 -687.54	    0.00
    117.7000	  168.00	    3.16	 -718.16	    0.00
    117.7500	  209.00	    4.10	 -678.10	    0.00
    117.8000	  185.00	    5.54	 -703.54	    0.00
    117.8500	  208.00	    7.71	 -682.71	    0.00
    117.9000	  213.00	   10.87	 -680.87	    0.00
    117.9500	  203.00	   15.29	 -695.29	    0.00
    118.0000	  225.00	   21.11	 -679.11	    0.00
    118.0500	  214.00	   28.32	 -697.32	    0.00
    118.1000	  233.00	   36.63	 -686.63	    0.00
    118.1500	  245.00	   45.45	 -683.45	    0.00
    118.2000	  236.00	   53.77	 -700.77	    0.00
    118.2500	  245.00	   60.32	 -698.32	    0.00
    118.3000	  305.00	   63.70	 -641.70	    0.00
    118.3500	  287.00	   63.04	 -659.04	    0.00
    118.4000	  317.00	   58.54	 -624.54	    0.00
    118.4500	  421.00	   51.28	 -513.28	    0.00
    118.5000	  422.00	   42.67	 -503.67	    0.00
    118.5500	  590.00	   33.93	 -326.93	    0.00
    118.6000	  701.00	   25.91	 -207.91	    0.00
    118.6500	  861.00	   19.12	  -41.12	    0.00
    118.7000	 1054.00	   13.75	  157.25	    0.00
    118.7500	 1232.00	    9.75	  339.25	    0.00
    118.8000	 1483.00	    6.93	  593.07	    0.00
    118.8500	 1694.00	    5.02	  805.98	    0.00
    118.9000	 1819.00	    3.76	  932.24	    0.00
    118.9500	 1845.00	    2.94	  959.06	    0.00
    119.0000	 1866.00	    2.39	  980.61	    0.00
    119.0500	 1726.00	    2.02	  840.98	    0.00
    119.1000	 1492.00	    1.75	  607.25	    0.00
    119.1500	 1232.00	    1.55	  347.45	    0.00
    119.2000	  971.00	    1.38	   86.62	    0.00
    119.2500	  753.00	    1.24	 -131.24	    0.00
    119.3000	  626.00	    1.13	 -258.13	    0.00
    119.3500	  487.00	    1.02	 -397.02	    0.00
    119.4000	  409.00	    0.94	 -474.94	    0.00
    119.4500	  342.00	    0.86	 -541.86	    0.00
    119.5000	  307.00	    0.79	 -576.79	    0.00
    119.5500	  296.00	    0.73	 -587.73	    0.00
    119.6000	  231.00	    0.68	 -652.68	    0.00
    119.6500	  246.00	    0.63	 -637.63	    0.00
    119.7000	  220.00	    0.59	 -663.59	    0.00
    119.7500	  255.00	    0.55	 -628.55	    0.00
    119.8000	  214.00	    0.51	 -669.51	    0.00
    119.8500	  247.00	    0.48	 -636.48	    0.00
    119.9000	  238.00	    0.45	 -645.45	    0.00
    119.9500	  218.00	    0.42	 -665.42	    0.00
    120.0000	  222.00	    0.40	 -661.40	    0.00
    120.0500	  218.00	    0.38	 -665.38	    0.00
    120.1000	  253.00	    0.36	 -630.36	    0.00
    120.1500	  197.00	    0.34	 -686.34	    0.00
    120.2000	  190.00	    0.32	 -693.32	    0.00
    120.2500	  221.00	    0.30	 -662.30	    0.00
    120.3000	  204.00	    0.29	 -679.29	    0.00
    120.3500	  206.00	    0.28	 -677.28	    0.00
    120.4000	  189.00	    0.26	 -694.26	    0.00
    120.4500	  231.00	    0.25	 -652.25	    0.00
    120.5000	  190.00	    0.24	 -693.24	    0.00
    120.5500	  191.00	    0.23	 -692.23	    0.00
    120.6000	  211.00	    0.26	 -672.26	    0.00
    120.6500	  204.00	    0.25	 -679.25	    0.00
    120.7000	  200.00	    0.24	 -683.24	    0.00
    120.7500	  199.00	    0.24	 -684.24	    0.00
    120.8000	  190.00	    0.05	 -693.05	    0.00
    120.8500	  195.00	    0.05	 -688.05	    0.00
    120.9000	  179.00	    0.05	 -704.05	    0.00
    120.9500	  189.00	    0.05	 -694.05	    0.00
    121.0000	  190.00	    0.05	 -693.05	    0.00
    121.0500	  195.00	    0.06	 -688.06	    0.00
    121.1000	  193.00	    0.06	 -690.06	    0.00
    121.1500	  173.00	    0.06	 -710.06	    0.00
    121.2000	  183.00	    0.06	 -700.06	    0.00
    121.2500	  181.00	    0.07	 -702.07	    0.00
    121.3000	  203.00	    0.07	 -680.07	    0.00
    121.3500	  177.00	    0.07	 -706.07	    0.00
    121.4000	  201.00	    0.08	 -682.08	    0.00
    121.4500	  179.00	    0.08	 -704.08	    0.00
    121.5000	  179.00	    0.09	 -704.09	    0.00
    121.5500	  194.00	    0.09	 -689.09	    0.00
    121.6000	  158.00	    0.10	 -725.10	    0.00
    121.6500	  195.00	    0.11	 -688.11	    0.00
    121.7000	  201.00	    0.11	 -682.11	    0.00
    121.7500	  192.00	    0.12	 -691.12	    0.00
    121.8000	  189.00	    0.13	 -694.13	    0.00
    121.8500	  186.00	    0.14	 -697.14	    0.00
    121.9000	  170.00	    0.15	 -713.15	    0.00
    121.9500	  166.00	    0.16	 -717.16	    0.00
    122.0000	  185.00	    0.17	 -698.17	    0.00
    122.0500	  197.00	    0.18	 -686.18	    0.00
    122.1000	  177.00	    0.20	 -706.20	    0.00
    122.1500	  198.00	    0.22	 -685.22	    0.00
    122.2000	  174.00	    0.24	 -709.24	    0.00
    122.2500	  171.00	    0.26	 -712.26	    0.00
    122.3000	  190.00	    0.29	 -693.29	    0.00
    122.3500	  214.00	    0.32	 -669.32	    0.00
    122.4000	  189.00	    0.36	 -694.36	    0.00
    122.4500	  174.00	    0.42	 -709.42	    0.00
    122.5000	  171.00	    0.49	 -712.49	    0.00
    122.5500	  163.00	    0.60	 -720.60	    0.00
    122.6000	  174.00	    0.75	 -709.75	    0.00
    122.6500	  177.00	    0.98	 -706.98	    0.00
    122.7000	  180.00	    1.31	 -704.31	    0.00
    122.7500	  186.00	    1.79	 -698.79	    0.00
    122.8000	  190.00	    2.46	 -695.46	    0.00
    122.8500	  170.00	    3.36	 -716.36	    0.00
    122.9000	  175.00	    4.49	 -712.49	    0.00
    122.9500	  194.00	    5.86	 -694.86	    0.00
    123.0000	  175.00	    7.40	 -715.40	    0.00
    123.0500	  194.00	    9.02	 -698.02	    0.00
    123.1000	  189.00	   10.57	 -704.57	    0.00
    123.1500	  222.00	   11.85	 -672.85	    0.00
    123.2000	  178.00	   12.64	 -717.64	    0.00
    123.2500	  158.00	   12.77	 -737.77	    0.00
    123.3000	  191.00	   12.22	 -704.22	    0.00
    123.3500	  184.00	   11.11	 -710.11	    0.00
    123.4000	  190.00	    9.64	 -702.64	    0.00
    123.4500	  183.00	    8.02	 -708.02	    0.00
    123.5000	  178.00	    6.43	 -711.43	    0.00
    123.5500	  204.00	    4.99	 -683.99	    0.00
    123.6000	  192.00	    3.77	 -694.77	    0.00
    123.6500	  200.00	    2.78	 -685.78	    0.00
    123.7000	  182.00	    2.03	 -703.03	    0.00
    123.7500	  171.00	    1.48	 -713.48	    0.00
    123.8000	  186.00	    1.09	 -698.09	    0.00
    123.8500	  197.00	    0.83	 -686.83	    0.00
    123.9000	  174.00	    0.65	 -709.65	    0.00
    123.9500	  167.00	    0.53	 -716.53	    0.00
    124.0000	  178.00	    0.44	 -705.44	    0.00
    124.0500	  198.00	    0.38	 -685.38	    0.00
    124.1000	  205.00	    0.34	 -678.34	    0.00
    124.1500	  216.00	    0.30	 -667.30	    0.00
    124.2000	  200.00	    0.27	 -683.27	    0.00
    124.2500	  204.00	    0.25	 -679.25	    0.00
    124.3000	  190.00	    0.23	 -693.23	    0.00
    124.3500	  188.00	    0.21	 -695.21	    0.00
    124.4000	  191.00	    0.19	 -692.19	    0.00
    124.4500	  186.00	    0.18	 -697.18	    0.00
    124.5000	  175.00	    0.16	 -708.16	    0.00
    124.5500	  175.00	    0.15	 -708.15	    0.00
    124.6000	  174.00	    0.14	 -709.14	    0.00
    124.6500	  194.00	    0.13	 -689.13	    0.00
    124.7000	  181.00	    0.12	 -702.12	    0.00
    124.7500	  161.00	    0.11	 -722.11	    0.00
    124.8000	  186.00	    0.11	 -697.11	    0.00
    124.8500	  200.00	    0.10	 -683.10	    0.00
    124.9000	  168.00	    0.10	 -715.10	    0.00
    124.9500	  177.00	    0.09	 -706.09	    0.00
    125.0000	  188.00	    0.09	 -695.09	    0.00
    125.0500	  177.00	    0.08	 -706.08	    0.00
    125.1000	  163.00	    0.08	 -720.08	    0.00
    125.1500	  175.00	    0.07	 -708.07	    0.00
    125.2000	  188.00	    0.07	 -695.07	    0.00
    125.2500	  176.00	    0.07	 -707.07	    0.00
    125.3000	  172.00	    0.06	 -711.06	    0.00
    125.3500	  172.00	    0.06	 -711.06	    0.00
    125.4000	  181.00	    0.06	 -702.06	    0.00
    125.4500	  186.00	    0.05	 -697.05	    0.00
    125.5000	  181.00	    0.07	 -702.07	    0.00
    125.5500	  193.00	    0.07	 -690.07	    0.00
    125.6000	  177.00	    0.07	 -706.07	    0.00
    125.6500	  176.00	    0.06	 -707.06	    0.00
    125.7000	  194.00	    0.06	 -689.06	    0.00
    125.7500	  179.00	    0.06	 -704.06	    0.00
    125.8000	  147.00	    0.06	 -736.06	    0.00
    125.8500	  186.00	    0.06	 -697.06	    0.00
    125.9000	  182.00	    0.02	 -701.02	    0.00
    125.9500	  165.00	    0.02	 -718.02	    0.00
    126.0000	  164.00	    0.02	 -719.02	    0.00
    126.0500	  199.00	    0.03	 -684.03	    0.00
    126.1000	  167.00	    0.03	 -716.03	    0.00
    126.1500	  184.00	    0.03	 -699.03	    0.00
    126.2000	  203.00	    0.03	 -680.03	    0.00
    126.2500	  190.00	    0.03	 -693.03	    0.00
    126.3000	  182.00	    0.03	 -701.03	    0.00
    126.3500	  180.00	    0.03	 -703.03	    0.00
    126.4000	  179.00	    0.03	 -704.03	    0.00
    126.4500	  179.00	    0.04	 -704.04	    0.00
    126.5000	  170.00	    0.04	 -713.04	    0.00
    126.5500	  176.00	    0.04	 -707.04	    0.00
    126.6000	  178.00	    0.04	 -705.04	    0.00
    126.6500	  185.00	    0.04	 -698.04	    0.00
    126.7000	  193.00	    0.05	 -690.05	    0.00
    126.7500	  192.00	    0.05	 -691.05	    0.00
    126.8000	  198.00	    0.05	 -685.05	    0.00
    126.8500	  195.00	    0.06	 -688.06	    0.00
    126.9000	  165.00	    0.06	 -718.06	    0.00
    126.9500	  189.00	    0.06	 -694.06	    0.00
    127.0000	  175.00	    0.07	 -708.07	    0.00
    127.0500	  176.00	    0.07	 -707.07	    0.00
    127.1000	  184.00	    0.08	 -699.08	    0.00
    127.1500	  179.00	    0.08	 -704.08	    0.00
    127.2000	  187.00	    0.09	 -696.09	    0.00
    127.2500	  176.00	    0.10	 -707.10	    0.00
    127.3000	  191.00	    0.11	 -692.11	    0.00
    127.3500	  194.00	    0.12	 -689.12	    0.00
    127.4000	  177.00	    0.13	 -706.13	    0.00
    127.4500	  177.00	    0.14	 -706.14	    0.00
    127.5000	  180.00	    0.15	 -703.15	    0.00
    127.5500	  158.00	    0.17	 -725.17	    0.00
    127.6000	  193.00	    0.20	 -690.20	    0.00
    127.6500	  177.00	    0.23	 -706.23	    0.00
    127.7000	  185.00	    0.28	 -698.28	    0.00
    127.7500	  178.00	    0.35	 -705.35	    0.00
    127.8000	  184.00	    0.44	 -699.44	    0.00
    127.8500	  188.00	    0.58	 -695.58	    0.00
    127.9000	  182.00	    0.76	 -701.76	    0.00
    127.9500	  190.00	    1.02	 -694.02	    0.00
    128.0000	  191.00	    1.35	 -693.35	    0.00
    128.0500	  165.00	    1.77	 -719.77	    0.00
    128.1000	  174.00	    2.28	 -711.28	    0.00
    128.1500	  158.00	    2.87	 -727.87	    0.00
    128.2000	  197.00	    3.51	 -689.51	    0.00
    128.2500	  183.00	    4.16	 -704.16	    0.00
    128.3000	  196.00	    4.79	 -691.79	    0.00
    128.3500	  166.00	    5.30	 -722.30	    0.00
    128.4000	  218.00	    5.65	 -670.65	    0.00
    128.4500	  206.00	    5.76	 -682.76	    0.00
    128.5000	  184.00	    5.61	 -704.61	    0.00
    128.5500	  176.00	    5.24	 -712.24	    0.00
    128.6000	  198.00	    4.71	 -689.71	    0.00
    128.6500	  215.00	    4.08	 -672.08	    0.00
    128.7000	  179.00	    3.42	 -707.42	    0.00
    128.7500	  192.00	    2.79	 -693.79	    0.00
    128.8000	  201.00	    2.21	 -684.21	    0.00
    128.8500	  221.00	    1.71	 -663.71	    0.00
    128.9000	  227.00	    1.30	 -657.30	    0.00
    128.9500	  229.00	    0.98	 -654.98	    0.00
    129.0000	  254.00	    0.74	 -629.74	    0.00
    129.0500	  256.00	    0.55	 -627.55	    0.00
    129.1000	  272.00	    0.43	 -611.43	    0.00
    129.1500	  239.00	    0.33	 -644.33	    0.00
    129.2000	  228.00	    0.27	 -655.27	    0.00
    129.2500	  255.00	    0.23	 -628.23	    0.00
    129.3000	  213.00	    0.19	 -670.19	    0.00
    129.3500	  203.00	    0.17	 -680.17	    0.00
    129.4000	  228.00	    0.15	 -655.15	    0.00
    129.4500	  220.00	    0.14	 -663.14	    0.00
    129.5000	  185.00	    0.12	 -698.12	    0.00
    129.5500	  192.00	    0.11	 -691.11	    0.00
    129.6000	  187.00	    0.10	 -696.10	    0.00
    129.6500	  182.00	    0.10	 -701.10	    0.00
    129.7000	  209.00	    0.09	 -674.09	    0.00
    129.7500	  173.00	    0.08	 -710.08	    0.00
    129.8000	  202.00	    0.08	 -681.08	    0.00
    129.8500	  178.00	    0.07	 -705.07	    0.00
    129.9000	  189.00	    0.07	 -694.07	    0.00
    129.9500	  177.00	    0.06	 -706.06	    0.00
    130.0000	  177.00	    0.06	 -706.06	    0.00
    130.0500	  190.00	    0.06	 -693.06	    0.00
    130.1000	  178.00	    0.05	 -705.05	    0.00
    130.1500	  177.00	    0.05	 -706.05	    0.00
    130.2000	  164.00	    0.05	 -719.05	    0.00
    130.2500	  185.00	    0.04	 -698.04	    0.00
    130.3000	  153.00	    0.04	 -730.04	    0.00
    130.3500	  174.00	    0.04	 -709.04	    0.00
    130.4000	  197.00	    0.04	 -686.04	    0.00
    130.4500	  192.00	    0.04	 -691.04	    0.00
    130.5000	  174.00	    0.03	 -709.03	    0.00
    130.5500	  177.00	    0.03	 -706.03	    0.00
    130.6000	  172.00	    0.03	 -711.03	    0.00
    130.6500	  173.00	    0.03	 -710.03	    0.00
    130.7000	  178.00	    0.03	 -705.03	    0.00
    130.7500	  180.00	    0.03	 -703.03	    0.00
    130.8000	  203.00	    0.03	 -680.03	    0.00
    130.8500	  192.00	    0.03	 -691.03	    0.00
    130.9000	  184.00	    0.02	 -699.02	    0.00
    130.9500	  197.00	    0.02	 -686.02	    0.00
    131.0000	  169.00	    0.02	 -714.02	    0.00
    131.0500	  187.00	    0.02	 -696.02	    0.00
    131.1000	  175.00	    0.02	 -708.02	    0.00
    131.1500	  177.00	    0.02	 -706.02	    0.00
    131.2000	  199.00	    0.02	 -684.02	    0.00
    131.2500	  180.00	    0.02	 -703.02	    0.00
    131.3000	  203.00	    0.02	 -680.02	    0.00
    131.3500	  175.00	    0.02	 -708.02	    0.00
    131.4000	  183.00	    0.02	 -700.02	    0.00
    131.4500	  192.00	    0.00	 -691.00	    0.00
    131.5000	  174.00	    0.00	 -709.00	    0.00
    131.5500	  180.00	    0.00	 -703.00	    0.00
    131.6000	  179.00	    0.00	 -704.00	    0.00
    131.6500	  191.00	    0.00	 -692.00	    0.00
    131.7000	  182.00	    0.00	 -701.00	    0.00
    131.7500	  174.00	    0.00	 -709.00	    0.00
    131.8000	  191.00	    0.00	 -692.00	    0.00
    131.8500	  195.00	    0.00	 -688.00	    0.00
    131.9000	  171.00	    0.00	 -712.00	    0.00
    131.9500	  198.00	    0.00	 -685.00	    0.00
    132.0000	  193.00	    0.00	 -690.00	    0.00
    132.0500	  175.00	    0.00	 -708.00	    0.00
    132.1000	  207.00	    0.00	 -676.00	    0.00
    132.1500	  189.00	    0.00	 -694.00	    0.00
    132.2000	  174.00	    0.00	 -709.00	    0.00
    132.2500	  196.00	    0.00	 -687.00	    0.00
    132.3000	  175.00	    0.00	 -708.00	    0.00
    132.3500	  196.00	    0.00	 -687.00	    0.00
    132.4000	  183.00	    0.00	 -700.00	    0.00
    132.4500	  198.00	    0.00	 -685.00	    0.00
    132.5000	  196.00	    0.00	 -687.00	    0.00
    132.5500	  169.00	    0.00	 -714.00	    0.00
    132.6000	  189.00	    0.00	 -694.00	    0.00
    132.6500	  171.00	    0.00	 -712.00	    0.00
    132.7000	  193.00	    0.00	 -690.00	    0.00
    132.7500	  170.00	    0.00	 -713.00	    0.00
    132.8000	  175.00	    0.00	 -708.00	    0.00
    132.8500	  166.00	    0.00	 -717.00	    0.00
    132.9000	  188.00	    0.00	 -695.00	    0.00
    132.9500	  186.00	    0.00	 -697.00	    0.00
    133.0000	  165.00	    0.00	 -718.00	    0.00
    133.0500	  201.00	    0.00	 -682.00	    0.00
    133.1000	  182.00	    0.00	 -701.00	    0.00
    133.1500	  151.00	    0.00	 -732.00	    0.00
    133.2000	  156.00	    0.00	 -727.00	    0.00
    133.2500	  187.00	    0.00	 -696.00	    0.00
    133.3000	  153.00	    0.00	 -730.00	    0.00
    133.3500	  193.00	    0.00	 -690.00	    0.00
    133.4000	  200.00	    0.00	 -683.00	    0.00
    133.4500	  165.00	    0.00	 -718.00	    0.00
    133.5000	  172.00	    0.00	 -711.00	    0.00
    133.5500	  162.00	    0.00	 -721.00	    0.00
    133.6000	  165.00	    0.00	 -718.00	    0.00
    133.6500	  218.00	    0.00	 -665.00	    0.00
    133.7000	  197.00	    0.00	 -686.00	    0.00
    133.7500	  206.00	    0.00	 -677.00	    0.00
    133.8000	  186.00	    0.00	 -697.00	    0.00
    133.8500	  162.00	    0.00	 -721.00	    0.00
    133.9000	  176.00	    0.00	 -707.00	    0.00
    133.9500	  174.00	    0.00	 -709.00	    0.00
    134.0000	  196.00	    0.00	 -687.00	    0.00
    134.0500	  174.00	    0.00	 -709.00	    0.00
    134.1000	  177.00	    0.00	 -706.00	    0.00
    134.1500	  183.00	    0.00	 -700.00	    0.00
    134.2000	  184.00	    0.00	 -699.00	    0.00
    134.2500	  185.00	    0.00	 -698.00	    0.00
    134.3000	  200.00	    0.00	 -683.00	    0.00
    134.3500	  175.00	    0.00	 -708.00	    0.00
    134.4000	  190.00	    0.00	 -693.00	    0.00
    134.4500	  195.00	    0.00	 -688.00	    0.00
    134.5000	  192.00	    0.00	 -691.00	    0.00
    134.5500	  171.00	    0.00	 -712.00	    0.00
    134.6000	  194.00	    0.00	 -689.00	    0.00
    134.6500	  190.00	    0.00	 -693.00	    0.00
    134.7000	  165.00	    0.00	 -718.00	    0.00
    134.7500	  192.00	    0.00	 -691.00	    0.00
    134.8000	  160.00	    0.00	 -723.00	    0.00
    134.8500	  192.00	    0.00	 -691.00	    0.00
    134.9000	  181.00	    0.00	 -702.00	    0.00
    134.9500	  208.00	    0.00	 -675.00	    0.00
    135.0000	  179.00	    0.00	 -704.00	    0.00
    135.0500	  172.00	    0.00	 -711.00	    0.00
    135.1000	  183.00	    0.00	 -700.00	    0.00
    135.1500	  187.00	    0.00	 -696.00	    0.00
    135.2000	  185.00	    0.00	 -698.00	    0.00
    135.2500	  182.00	    0.00	 -701.00	    0.00
    135.3000	  184.00	    0.00	 -699.00	    0.00
    135.3500	  163.00	    0.00	 -720.00	    0.00
    135.4000	  201.00	    0.00	 -682.00	    0.00
    135.4500	  189.00	    0.00	 -694.00	    0.00
    135.5000	  204.00	    0.00	 -679.00	    0.00
    135.5500	  178.00	    0.00	 -705.00	    0.00
    135.6000	  178.00	    0.00	 -705.00	    0.00
    135.6500	  193.00	    0.00	 -690.00	    0.00
    135.7000	  215.00	    0.00	 -668.00	    0.00
    135.7500	  203.00	    0.00	 -680.00	    0.00
    135.8000	  216.00	    0.00	 -667.00	    0.00
    135.8500	  165.00	    0.00	 -718.00	    0.00
    135.9000	  196.00	    0.00	 -687.00	    0.00
    135.9500	  178.00	    0.00	 -705.00	    0.00
    136.0000	  170.00	    0.00	 -713.00	    0.00
    136.0500	  173.00	    0.00	 -710.00	    0.00
    136.1000	  188.00	    0.00	 -695.00	    0.00
    136.1500	  176.00	    0.00	 -707.00	    0.00
    136.2000	  186.00	    0.00	 -697.00	    0.00
    136.2500	  189.00	    0.00	 -694.00	    0.00
    136.3000	  166.00	    0.00	 -717.00	    0.00
    136.3500	  177.00	    0.12	 -706.12	    0.00
    136.4000	  169.00	    0.12	 -714.12	    0.00
    136.4500	  171.00	    0.12	 -712.12	    0.00
    136.5000	  194.00	    0.13	 -689.13	    0.00
    136.5500	  187.00	    0.13	 -696.13	    0.00
    136.6000	  162.00	    0.13	 -721.13	    0.00
    136.6500	  160.00	    0.14	 -723.14	    0.00
    136.7000	  183.00	    0.14	 -700.14	    0.00
    136.7500	  150.00	    0.14	 -733.14	    0.00
    136.8000	  180.00	    0.15	 -703.15	    0.00
    136.8500	  194.00	    0.15	 -689.15	    0.00
    136.9000	  185.00	    0.16	 -698.16	    0.00
    136.9500	  158.00	    0.16	 -725.16	    0.00
    137.0000	  193.00	    0.17	 -690.17	    0.00
    137.0500	  165.00	    0.17	 -718.17	    0.00
    137.1000	  178.00	    0.18	 -705.18	    0.00
    137.1500	  183.00	    0.18	 -700.18	    0.00
    137.2000	  180.00	    0.19	 -703.19	    0.00
    137.2500	  176.00	    0.20	 -707.20	    0.00
    137.3000	  183.00	    0.20	 -700.20	    0.00
    137.3500	  189.00	    0.21	 -694.21	    0.00
    137.4000	  180.00	    0.22	 -703.22	    0.00
    137.4500	  160.00	    0.22	 -723.22	    0.00
    137.5000	  202.00	    0.23	 -681.23	    0.00
    137.5500	  201.00	    0.24	 -682.24	    0.00
    137.6000	  173.00	    0.25	 -710.25	    0.00
    137.6500	  176.00	    0.26	 -707.26	    0.00
    137.7000	  195.00	    0.27	 -688.27	    0.00
    137.7500	  197.00	    0.28	 -686.28	    0.00
    137.8000	  186.00	    0.29	 -697.29	    0.00
    137.8500	  183.00	    0.30	 -700.30	    0.00
    137.9000	  175.00	    0.31	 -708.31	    0.00
    137.9500	  178.00	    0.33	 -705.33	    0.00
    138.0000	  190.00	    0.34	 -693.34	    0.00
    138.0500	  174.00	    0.36	 -709.36	    0.00
    138.1000	  163.00	    0.37	 -720.37	    0.00
    138.1500	  190.00	    0.39	 -693.39	    0.00
    138.2000	  169.00	    0.41	 -714.41	    0.00
    138.2500	  198.00	    0.43	 -685.43	    0.00
    138.3000	  199.00	    0.45	 -684.45	    0.00
    138.3500	  184.00	    0.47	 -699.47	    0.00
    138.4000	  216.00	    0.49	 -667.49	    0.00
    138.4500	  183.00	    0.52	 -700.52	    0.00
    138.5000	  200.00	    0.55	 -683.55	    0.00
    138.5500	  186.00	    0.58	 -697.58	    0.00
    138.6000	  177.00	    0.61	 -706.61	    0.00
    138.6500	  186.00	    0.65	 -697.65	    0.00
    138.7000	  193.00	    0.69	 -690.69	    0.00
    138.7500	  200.00	    0.73	 -683.73	    0.00
    138.8000	  180.00	    0.78	 -703.78	    0.00
    138.8500	  178.00	    0.83	 -705.83	    0.00
    138.9000	  198.00	    0.89	 -685.89	    0.00
    138.9500	  236.00	    0.96	 -647.96	    0.00
    139.0000	  203.00	    1.04	 -681.04	    0.00
    139.0500	  207.00	    1.13	 -677.13	    0.00
    139.1000	  190.00	    1.24	 -694.24	    0.00
    139.1500	  171.00	    1.37	 -713.37	    0.00
    139.2000	  203.00	    1.54	 -681.54	    0.00
    139.2500	  203.00	    1.76	 -681.76	    0.00
    139.3000	  198.00	    2.05	 -687.05	    0.00
    139.3500	  200.00	    2.42	 -685.42	    0.00
    139.4000	  187.00	    2.91	 -698.91	    0.00
    139.4500	  214.00	    3.55	 -672.55	    0.00
    139.5000	  198.00	    4.37	 -689.37	    0.00
    139.5500	  220.00	    5.42	 -668.42	    0.00
    139.6000	  196.00	    6.74	 -693.74	    0.00
    139.6500	  239.00	    8.37	 -652.37	    0.00
    139.7000	  212.00	   10.33	 -681.33	    0.00
    139.7500	  219.00	   12.66	 -676.66	    0.00
    139.8000	  248.00	   15.33	 -650.33	    0.00
    139.8500	  220.00	   18.34	 -681.34	    0.00
    139.9000	  241.00	   21.63	 -663.63	    0.00
    139.9500	  245.00	   25.11	 -663.11	    0.00
    140.0000	  269.00	   28.66	 -642.66	    0.00
    140.0500	  294.00	   32.13	 -621.13	    0.00
    140.1000	  323.00	   35.34	 -595.34	    0.00
    140.1500	  302.00	   38.08	 -619.08	    0.00
    140.2000	  312.00	   40.13	 -611.13	    0.00
    140.2500	  371.00	   41.31	 -553.31	    0.00
    140.3000	  420.00	   41.49	 -504.49	    0.00
    140.3500	  516.00	   40.66	 -407.66	    0.00
    140.4000	  596.00	   38.91	 -325.91	    0.00
    140.4500	  644.00	   36.39	 -275.39	    0.00
    140.5000	  711.00	   33.33	 -205.33	    0.00
    140.5500	  833.00	   29.93	  -79.93	    0.00
    140.6000	  895.00	   26.39	  -14.39	    0.00
    140.6500	 1010.00	   22.87	  104.13	    0.00
    140.7000	 1058.00	   19.50	  155.50	    0.00
    140.7500	 1183.00	   16.39	  283.61	    0.00
    140.8000	 1278.00	   13.58	  381.42	    0.00
    140.8500	 1298.00	   11.13	  403.87	    0.00
    140.9000	 1419.00	    9.04	  526.96	    0.00
    140.9500	 1381.00	    7.29	  490.71	    0.00
    141.0000	 1299.00	    5.86	  410.14	    0.00
    141.0500	 1371.00	    4.72	  483.28	    0.00
    141.1000	 1273.00	    3.82	  386.18	    0.00
    141.1500	 1131.00	    3.12	  244.88	    0.00
    141.2000	  992.00	    2.58	  106.42	    0.00
    141.2500	  918.00	    2.17	   32.83	    0.00
    141.3000	  832.00	    1.86	  -52.86	    0.00
    141.3500	  655.00	    1.62	 -229.62	    0.00
    141.4000	  629.00	    1.43	 -255.43	    0.00
    141.4500	  522.00	    1.28	 -362.28	    0.00
    141.5000	  472.00	    1.17	 -412.17	    0.00
    141.5500	  409.00	    1.07	 -475.07	    0.00
    141.6000	  371.00	    0.99	 -512.99	    0.00
    141.6500	  325.00	    0.91	 -558.91	    0.00
    141.7000	  306.00	    0.85	 -577.85	    0.00
    141.7500	  270.00	    0.80	 -613.80	    0.00
    141.8000	  238.00	    0.75	 -645.75	    0.00
    141.8500	  231.00	    0.70	 -652.70	    0.00
    141.9000	  232.00	    0.66	 -651.66	    0.00
    141.9500	  223.00	    0.63	 -660.63	    0.00
    142.0000	  221.00	    0.59	 -662.59	    0.00
    142.0500	  244.00	    0.56	 -639.56	    0.00
    142.1000	  228.00	    0.53	 -655.53	    0.00
    142.1500	  212.00	    0.50	 -671.50	    0.00
    142.2000	  226.00	    0.48	 -657.48	    0.00
    142.2500	  197.00	    0.46	 -686.46	    0.00
    142.3000	  204.00	    0.43	 -679.43	    0.00
    142.3500	  189.00	    0.41	 -694.41	    0.00
    142.4000	  201.00	    0.40	 -682.40	    0.00
    142.4500	  226.00	    0.38	 -657.38	    0.00
    142.5000	  210.00	    0.38	 -673.38	    0.00
    142.5500	  213.00	    0.36	 -670.36	    0.00
    142.6000	  202.00	    0.35	 -681.35	    0.00
    142.6500	  206.00	    0.33	 -677.33	    0.00
    142.7000	  189.00	    0.32	 -694.32	    0.00
    142.7500	  213.00	    0.31	 -670.31	    0.00
    142.8000	  193.00	    0.30	 -690.30	    0.00
    142.8500	  206.00	    0.29	 -677.29	    0.00
    142.9000	  204.00	    0.28	 -679.28	    0.00
    142.9500	  188.00	    0.27	 -695.27	    0.00
    143.0000	  221.00	    0.26	 -662.26	    0.00
    143.0500	  203.00	    0.25	 -680.25	    0.00
    143.1000	  192.00	    0.24	 -691.24	    0.00
    143.1500	  197.00	    0.24	 -686.24	    0.00
    143.2000	  187.00	    0.23	 -696.23	    0.00
    143.2500	  206.00	    0.22	 -677.22	    0.00
    143.3000	  197.00	    0.22	 -686.22	    0.00
    143.3500	  182.00	    0.21	 -701.21	    0.00
    143.4000	  186.00	    0.21	 -697.21	    0.00
    143.4500	  228.00	    0.20	 -655.20	    0.00
    143.5000	  201.00	    0.20	 -682.20	    0.00
    143.5500	  176.00	    0.19	 -707.19	    0.00
    143.6000	  193.00	    0.19	 -690.19	    0.00
    143.6500	  200.00	    0.18	 -683.18	    0.00
    143.7000	  189.00	    0.18	 -694.18	    0.00
    143.7500	  198.00	    0.18	 -685.18	    0.00
    143.8000	  188.00	    0.17	 -695.17	    0.00
    143.8500	  169.00	    0.17	 -714.17	    0.00
    143.9000	  183.00	    0.17	 -700.17	    0.00
    143.9500	  198.00	    0.16	 -685.16	    0.00
    144.0000	  156.00	    0.16	 -727.16	    0.00
    144.0500	  172.00	    0.16	 -711.16	    0.00
    144.1000	  190.00	    0.15	 -693.15	    0.00
    144.1500	  166.00	    0.15	 -717.15	    0.00
    144.2000	  163.00	    0.15	 -720.15	    0.00
    144.2500	  184.00	    0.15	 -699.15	    0.00
    144.3000	  182.00	    0.03	 -701.03	    0.00
    144.3500	  173.00	    0.03	 -710.03	    0.00
    144.4000	  182.00	    0.04	 -701.04	    0.00
    144.4500	  183.00	    0.04	 -700.04	    0.00
    144.5000	  186.00	    0.04	 -697.04	    0.00
    144.5500	  195.00	    0.04	 -688.04	    0.00
    144.6000	  204.00	    0.04	 -679.04	    0.00
    144.6500	  179.00	    0.04	 -704.04	    0.00
    144.7000	  192.00	    0.04	 -691.04	    0.00
    144.7500	  213.00	    0.05	 -670.05	    0.00
    144.8000	  187.00	    0.05	 -696.05	    0.00
    144.8500	  194.00	    0.05	 -689.05	    0.00
    144.9000	  185.00	    0.05	 -698.05	    0.00
    144.9500	  183.00	    0.05	 -700.05	    0.00
    145.0000	  192.00	    0.05	 -691.05	    0.00
    145.0500	  201.00	    0.06	 -682.06	    0.00
    145.1000	  211.00	    0.06	 -672.06	    0.00
    145.1500	  163.00	    0.06	 -720.06	    0.00
    145.2000	  202.00	    0.06	 -681.06	    0.00
    145.2500	  197.00	    0.07	 -686.07	    0.00
    145.3000	  183.00	    0.07	 -700.07	    0.00
    145.3500	  177.00	    0.07	 -706.07	    0.00
    145.4000	  188.00	    0.08	 -695.08	    0.00
    145.4500	  158.00	    0.08	 -725.08	    0.00
    145.5000	  184.00	    0.08	 -699.08	    0.00
    145.5500	  162.00	    0.09	 -721.09	    0.00
    145.6000	  169.00	    0.09	 -714.09	    0.00
    145.6500	  171.00	    0.10	 -712.10	    0.00
    145.7000	  188.00	    0.10	 -695.10	    0.00
    145.7500	  167.00	    0.11	 -716.11	    0.00
    145.8000	  182.00	    0.12	 -701.12	    0.00
    145.8500	  197.00	    0.13	 -686.13	    0.00
    145.9000	  179.00	    0.13	 -704.13	    0.00
    145.9500	  172.00	    0.14	 -711.14	    0.00
    146.0000	  163.00	    0.16	 -720.16	    0.00
    146.0500	  172.00	    0.17	 -711.17	    0.00
    146.1000	  178.00	    0.19	 -705.19	    0.00
    146.1500	  179.00	    0.21	 -704.21	    0.00
    146.2000	  171.00	    0.24	 -712.24	    0.00
    146.2500	  189.00	    0.27	 -694.27	    0.00
    146.3000	  190.00	    0.31	 -693.31	    0.00
    146.3500	  185.00	    0.36	 -698.36	    0.00
    146.4000	  169.00	    0.42	 -714.42	    0.00
    146.4500	  165.00	    0.50	 -718.50	    0.00
    146.5000	  185.00	    0.60	 -698.60	    0.00
    146.5500	  158.00	    0.71	 -725.71	    0.00
    146.6000	  190.00	    0.85	 -693.85	    0.00
    146.6500	  165.00	    1.01	 -719.01	    0.00
    146.7000	  173.00	    1.19	 -711.19	    0.00
    146.7500	  206.00	    1.41	 -678.41	    0.00
    146.8000	  170.00	    1.65	 -714.65	    0.00
    146.8500	  193.00	    1.92	 -691.92	    0.00
    146.9000	  167.00	    2.22	 -718.22	    0.00
    146.9500	  182.00	    2.54	 -703.54	    0.00
    147.0000	  191.00	    2.88	 -694.88	    0.00
    147.0500	  175.00	    3.22	 -711.22	    0.00
    147.1000	  184.00	    3.57	 -702.57	    0.00
    147.1500	  163.00	    3.91	 -723.91	    0.00
    147.2000	  174.00	    4.24	 -713.24	    0.00
    147.2500	  176.00	    4.53	 -711.53	    0.00
    147.3000	  163.00	    4.78	 -724.78	    0.00
    147.3500	  174.00	    4.97	 -713.97	    0.00
    147.4000	  155.00	    5.09	 -733.09	    0.00
    147.4500	  153.00	    5.13	 -735.13	    0.00
    147.5000	  190.00	    5.09	 -698.09	    0.00
    147.5500	  190.00	    4.98	 -697.98	    0.00
    147.6000	  169.00	    4.79	 -718.79	    0.00
    147.6500	  189.00	    4.55	 -698.55	    0.00
    147.7000	  177.00	    4.26	 -710.26	    0.00
    147.7500	  167.00	    3.94	 -719.94	    0.00
    147.8000	  163.00	    3.60	 -723.60	    0.00
    147.8500	  196.00	    3.25	 -690.25	    0.00
    147.9000	  175.00	    2.90	 -710.90	    0.00
    147.9500	  146.00	    2.56	 -739.56	    0.00
    148.0000	  170.00	    2.24	 -715.24	    0.00
    148.0500	  179.00	    1.94	 -705.94	    0.00
    148.1000	  182.00	    1.67	 -702.67	    0.00
    148.1500	  175.00	    1.43	 -709.43	    0.00
    148.2000	  171.00	    1.21	 -713.21	    0.00
    148.2500	  201.00	    1.02	 -683.02	    0.00
    148.3000	  181.00	    0.86	 -702.86	    0.00
    148.3500	  152.00	    0.72	 -731.72	    0.00
    148.4000	  194.00	    0.60	 -689.60	    0.00
    148.4500	  160.00	    0.51	 -723.51	    0.00
    148.5000	  179.00	    0.43	 -704.43	    0.00
    148.5500	  181.00	    0.37	 -702.36	    0.00
    148.6000	  175.00	    0.31	 -708.31	    0.00
    148.6500	  178.00	    0.27	 -705.27	    0.00
    148.7000	  186.00	    0.24	 -697.24	    0.00
    148.7500	  195.00	    0.21	 -688.21	    0.00
    148.8000	  166.00	    0.19	 -717.19	    0.00
    148.8500	  184.00	    0.17	 -699.17	    0.00
    148.9000	  215.00	    0.16	 -668.16	    0.00
    148.9500	  183.00	    0.15	 -700.15	    0.00
    149.0000	  184.00	    0.13	 -699.13	    0.00
    149.0500	  174.00	    0.13	 -709.13	    0.00
    149.1000	  175.00	    0.12	 -708.12	    0.00
    149.1500	  171.00	    0.11	 -712.11	    0.00
    149.2000	  166.00	    0.10	 -717.10	    0.00
    149.2500	  188.00	    0.10	 -695.10	    0.00
    149.3000	  165.00	    0.12	 -718.12	    0.00
    149.3500	  184.00	    0.12	 -699.12	    0.00
    149.4000	  181.00	    0.11	 -702.11	    0.00
    149.4500	  174.00	    0.11	 -709.11	    0.00
    149.5000	  178.00	    0.11	 -705.11	    0.00
    149.5500	  191.00	    0.10	 -692.10	    0.00
    149.6000	  181.00	    0.10	 -702.10	    0.00
    149.6500	  174.00	    0.10	 -709.10	    0.00
    149.7000	  180.00	    0.10	 -703.10	    0.00
    149.7500	  177.00	    0.09	 -706.09	    0.00
    149.8000	  164.00	    0.09	 -719.09	    0.00
    149.8500	  203.00	    0.09	 -680.09	    0.00
    149.9000	  178.00	    0.09	 -705.09	    0.00
    149.9500	  162.00	    0.09	 -721.09	    0.00
    150.0000	  192.00	    0.09	 -691.09	    0.00
    150.0500	  164.00	    0.08	 -719.08	    0.00
    150.1000	  151.00	    0.08	 -732.08	    0.00
    150.1500	  170.00	    0.08	 -713.08	    0.00
    150.2000	  166.00	    0.08	 -717.08	    0.00
    150.2500	  194.00	    0.08	 -689.08	    0.00
    150.3000	  168.00	    0.08	 -715.08	    0.00
    150.3500	  173.00	    0.08	 -710.08	    0.00
    150.4000	  175.00	    0.08	 -708.08	    0.00
    150.4500	  193.00	    0.08	 -690.08	    0.00
    150.5000	  177.00	    0.08	 -706.08	    0.00
    150.5500	  185.00	    0.08	 -698.08	    0.00
    150.6000	  178.00	    0.08	 -705.08	    0.00
    150.6500	  178.00	    0.07	 -705.07	    0.00
    150.7000	  179.00	    0.07	 -704.07	    0.00
    150.7500	  180.00	    0.07	 -703.07	    0.00
    150.8000	  169.00	    0.07	 -714.07	    0.00
    150.8500	  177.00	    0.07	 -706.07	    0.00
    150.9000	  159.00	    0.07	 -724.07	    0.00
    150.9500	  167.00	    0.07	 -716.07	    0.00
    151.0000	  180.00	    0.07	 -703.07	    0.00
    151.0500	  158.00	    0.07	 -725.07	    0.00
    151.1000	  173.00	    0.07	 -710.07	    0.00
    151.1500	  172.00	    0.08	 -711.08	    0.00
    151.2000	  163.00	    0.08	 -720.08	    0.00
    151.2500	  168.00	    0.08	 -715.08	    0.00
    151.3000	  166.00	    0.08	 -717.08	    0.00
    151.3500	  179.00	    0.08	 -704.08	    0.00
    151.4000	  159.00	    0.08	 -724.08	    0.00
    151.4500	  173.00	    0.08	 -710.08	    0.00
    151.5000	  170.00	    0.08	 -713.08	    0.00
    151.5500	  151.00	    0.08	 -732.08	    0.00
    151.6000	  174.00	    0.08	 -709.08	    0.00
    151.6500	  182.00	    0.08	 -701.08	    0.00
    151.7000	  182.00	    0.08	 -701.08	    0.00
    151.7500	  172.00	    0.08	 -711.08	    0.00
    151.8000	  157.00	    0.08	 -726.08	    0.00
    151.8500	  156.00	    0.08	 -727.08	    0.00
    151.9000	  168.00	    0.09	 -715.09	    0.00
    151.9500	  194.00	    0.09	 -689.09	    0.00
    152.0000	  177.00	    0.09	 -706.09	    0.00
    152.0500	  170.00	    0.09	 -713.09	    0.00
    152.1000	  169.00	    0.09	 -714.09	    0.00
    152.1500	  173.00	    0.09	 -710.09	    0.00
    152.2000	  161.00	    0.09	 -722.09	    0.00
    152.2500	  169.00	    0.09	 -714.09	    0.00
    152.3000	  167.00	    0.10	 -716.10	    0.00
    152.3500	  194.00	    0.10	 -689.10	    0.00
    152.4000	  150.00	    0.10	 -733.10	    0.00
    152.4500	  159.00	    0.09	 -724.09	    0.00
    152.5000	  181.00	    0.09	 -702.09	    0.00
    152.5500	  180.00	    0.09	 -703.09	    0.00
    152.6000	  193.00	    0.09	 -690.09	    0.00
    152.6500	  192.00	    0.10	 -691.10	    0.00
    152.7000	  152.00	    0.10	 -731.10	    0.00
    152.7500	  159.00	    0.10	 -724.10	    0.00
    152.8000	  147.00	    0.10	 -736.10	    0.00
    152.8500	  190.00	    0.11	 -693.11	    0.00
    152.9000	  167.00	    0.11	 -716.11	    0.00
    152.9500	  193.00	    0.11	 -690.11	    0.00
    153.0000	  159.00	    0.12	 -724.12	    0.00
    153.0500	  195.00	    0.12	 -688.12	    0.00
    153.1000	  172.00	    0.12	 -711.12	    0.00
    153.1500	  148.00	    0.13	 -735.13	    0.00
    153.2000	  174.00	    0.13	 -709.13	    0.00
    153.2500	  194.00	    0.13	 -689.13	    0.00
    153.3000	  159.00	    0.14	 -724.14	    0.00
    153.3500	  190.00	    0.14	 -693.14	    0.00
    153.4000	  181.00	    0.15	 -702.15	    0.00
    153.4500	  159.00	    0.15	 -724.15	    0.00
    153.5000	  168.00	    0.16	 -715.16	    0.00
    153.5500	  175.00	    0.16	 -708.16	    0.00
    153.6000	  184.00	    0.17	 -699.17	    0.00
    153.6500	  200.00	    0.17	 -683.17	    0.00
    153.7000	  161.00	    0.18	 -722.18	    0.00
    153.7500	  162.00	    0.19	 -721.19	    0.00
    153.8000	  152.00	    0.19	 -731.19	    0.00
    153.8500	  177.00	    0.20	 -706.20	    0.00
    153.9000	  173.00	    0.21	 -710.21	    0.00
    153.9500	  184.00	    0.22	 -699.22	    0.00
    154.0000	  169.00	    0.22	 -714.22	    0.00
    154.0500	  163.00	    0.23	 -720.23	    0.00
    154.1000	  177.00	    0.24	 -706.24	    0.00
    154.1500	  171.00	    0.26	 -712.26	    0.00
    154.2000	  180.00	    0.27	 -703.27	    0.00
    154.2500	  201.00	    0.28	 -682.28	    0.00
    154.3000	  206.00	    0.30	 -677.30	    0.00
    154.3500	  181.00	    0.32	 -702.32	    0.00
    154.4000	  170.00	    0.34	 -713.34	    0.00
    154.4500	  177.00	    0.36	 -706.36	    0.00
    154.5000	  196.00	    0.38	 -687.38	    0.00
    154.5500	  201.00	    0.41	 -682.41	    0.00
    154.6000	  161.00	    0.45	 -722.45	    0.00
    154.6500	  179.00	    0.49	 -704.49	    0.00
    154.7000	  185.00	    0.54	 -698.54	    0.00
    154.7500	  167.00	    0.59	 -716.59	    0.00
    154.8000	  162.00	    0.66	 -721.66	    0.00
    154.8500	  178.00	    0.73	 -705.73	    0.00
    154.9000	  203.00	    0.82	 -680.82	    0.00
    154.9500	  193.00	    0.92	 -690.92	    0.00
    155.0000	  164.00	    1.04	 -720.04	    0.00
    155.0500	  191.00	    1.17	 -693.17	    0.00
    155.1000	  173.00	    1.33	 -711.33	    0.00
    155.1500	  165.00	    1.50	 -719.50	    0.00
    155.2000	  178.00	    1.70	 -706.70	    0.00
    155.2500	  196.00	    1.92	 -688.92	    0.00
    155.3000	  188.00	    2.17	 -697.17	    0.00
    155.3500	  183.00	    2.45	 -702.45	    0.00
    155.4000	  188.00	    2.75	 -697.75	    0.00
    155.4500	  166.00	    3.09	 -720.09	    0.00
    155.5000	  189.00	    3.45	 -697.45	    0.00
    155.5500	  175.00	    3.84	 -711.84	    0.00
    155.6000	  173.00	    4.26	 -714.26	    0.00
    155.6500	  201.00	    4.70	 -686.70	    0.00
    155.7000	  177.00	    5.17	 -711.17	    0.00
    155.7500	  202.00	    5.66	 -686.66	    0.00
    155.8000	  169.00	    6.16	 -720.16	    0.00
    155.8500	  198.00	    6.67	 -691.67	    0.00
    155.9000	  191.00	    7.19	 -699.18	    0.00
    155.9500	  207.00	    7.70	 -683.70	    0.00
    156.0000	  226.00	    8.20	 -665.20	    0.00
    156.0500	  184.00	    8.68	 -707.68	    0.00
    156.1000	  218.00	    9.14	 -674.14	    0.00
    156.1500	  215.00	    9.56	 -677.56	    0.00
    156.2000	  239.00	    9.94	 -653.94	    0.00
    156.2500	  292.00	   10.26	 -601.26	    0.00
    156.3000	  251.00	   10.51	 -642.51	    0.00
    156.3500	  255.00	   10.70	 -638.70	    0.00
    156.4000	  244.00	   10.81	 -649.81	    0.00
    156.4500	  259.00	   10.83	 -634.83	    0.00
    156.5000	  260.00	   10.78	 -633.78	    0.00
    156.5500	  294.00	   10.65	 -599.65	    0.00
    156.6000	  303.00	   10.44	 -590.44	    0.00
    156.6500	  282.00	   10.16	 -611.16	    0.00
    156.7000	  312.00	    9.83	 -580.83	    0.00
    156.7500	  317.00	    9.43	 -575.43	    0.00
    156.8000	  342.00	    9.00	 -550.00	    0.00
    156.8500	  338.00	    8.53	 -553.53	    0.00
    156.9000	  351.00	    8.04	 -540.04	    0.00
    156.9500	  359.00	    7.54	 -531.54	    0.00
    157.0000	  394.00	    7.02	 -496.02	    0.00
    157.0500	  316.00	    6.51	 -573.51	    0.00
    157.1000	  379.00	    6.00	 -510.00	    0.00
    157.1500	  359.00	    5.50	 -529.50	    0.00
    157.2000	  404.00	    5.02	 -484.02	    0.00
    157.2500	  381.00	    4.56	 -506.56	    0.00
    157.3000	  359.00	    4.13	 -528.13	    0.00
    157.3500	  364.00	    3.72	 -522.72	    0.00
    157.4000	  347.00	    3.33	 -539.33	    0.00
    157.4500	  328.00	    2.98	 -557.98	    0.00
    157.5000	  344.00	    2.65	 -541.65	    0.00
    157.5500	  320.00	    2.36	 -565.36	    0.00
    157.6000	  333.00	    2.09	 -552.09	    0.00
    157.6500	  319.00	    1.85	 -565.85	    0.00
    157.7000	  289.00	    1.63	 -595.63	    0.00
    157.7500	  284.00	    1.44	 -600.44	    0.00
    157.8000	  283.00	    1.28	 -601.28	    0.00
    157.8500	  305.00	    1.13	 -579.13	    0.00
    157.9000	  281.00	    1.00	 -603.00	    0.00
    157.9500	  244.00	    0.89	 -639.89	    0.00
    158.0000	  253.00	    0.79	 -630.79	    0.00
    158.0500	  245.00	    0.71	 -638.71	    0.00
    158.1000	  210.00	    0.64	 -673.64	    0.00
    158.1500	  201.00	    0.58	 -682.58	    0.00
    158.2000	  226.00	    0.52	 -657.52	    0.00
    158.2500	  206.00	    0.48	 -677.48	    0.00
    158.3000	  218.00	    0.44	 -665.44	    0.00
    158.3500	  201.00	    0.40	 -682.40	    0.00
    158.4000	  226.00	    0.38	 -657.38	    0.00
    158.4500	  201.00	    0.35	 -682.35	    0.00
    158.5000	  210.00	    0.33	 -673.33	    0.00
    158.5500	  207.00	    0.31	 -676.31	    0.00
    158.6000	  176.00	    0.29	 -707.29	    0.00
    158.6500	  172.00	    0.28	 -711.28	    0.00
    158.7000	  173.00	    0.26	 -710.26	    0.00
    158.7500	  195.00	    0.25	 -688.25	    0.00
    158.8000	  168.00	    0.24	 -715.24	    0.00
    158.8500	  177.00	    0.23	 -706.23	    0.00
    158.9000	  186.00	    0.22	 -697.22	    0.00
    158.9500	  170.00	    0.21	 -713.21	    0.00
    159.0000	  190.00	    0.20	 -693.20	    0.00
    159.0500	  175.00	    0.20	 -708.20	    0.00
    159.1000	  191.00	    0.19	 -692.19	    0.00
    159.1500	  164.00	    0.18	 -719.18	    0.00
    159.2000	  189.00	    0.18	 -694.18	    0.00
    159.2500	  176.00	    0.17	 -707.17	    0.00
    159.3000	  175.00	    0.17	 -708.17	    0.00
    159.3500	  162.00	    0.16	 -721.16	    0.00
    159.4000	  184.00	    0.15	 -699.15	    0.00
    159.4500	  163.00	    0.15	 -720.15	    0.00
    159.5000	  179.00	    0.15	 -704.15	    0.00
    159.5500	  194.00	    0.14	 -689.14	    0.00
    159.6000	  165.00	    0.14	 -718.14	    0.00
    159.6500	  180.00	    0.13	 -703.13	    0.00
    159.7000	  174.00	    0.13	 -709.13	    0.00
    159.7500	  180.00	    0.13	 -703.13	    0.00
    159.8000	  179.00	    0.12	 -704.12	    0.00
    159.8500	  189.00	    0.12	 -694.12	    0.00
    159.9000	  185.00	    0.12	 -698.12	    0.00
    159.9500	  151.00	    0.11	 -732.11	    0.00
    160.0000	  176.00	    0.11	 -707.11	    0.00
    160.0500	  165.00	    0.11	 -718.11	    0.00
    160.1000	  163.00	    0.10	 -720.10	    0.00
    160.1500	  184.00	    0.10	 -699.10	    0.00
    160.2000	  157.00	    0.10	 -726.10	    0.00
    160.2500	  166.00	    0.10	 -717.10	    0.00
    160.3000	  160.00	    0.09	 -723.09	    0.00
    160.3500	  183.00	    0.09	 -700.09	    0.00
    160.4000	  167.00	    0.09	 -716.09	    0.00
    160.4500	  180.00	    0.09	 -703.09	    0.00
    160.5000	  183.00	    0.08	 -700.08	    0.00
    160.5500	  163.00	    0.08	 -720.08	    0.00
    160.6000	  178.00	    0.08	 -705.08	    0.00
    160.6500	  179.00	    0.08	 -704.08	    0.00
    160.7000	  161.00	    0.08	 -722.08	    0.00
    160.7500	  168.00	    0.08	 -715.08	    0.00
    160.8000	  173.00	    0.07	 -710.07	    0.00
    160.8500	  202.00	    0.07	 -681.07	    0.00
    160.9000	  145.00	    0.07	 -738.07	    0.00
    160.9500	  162.00	    0.07	 -721.07	    0.00
    161.0000	  180.00	    0.07	 -703.07	    0.00
    161.0500	  186.00	    0.07	 -697.07	    0.00
    161.1000	  166.00	    0.06	 -717.06	    0.00
    161.1500	  177.00	    0.06	 -706.06	    0.00
    161.2000	  194.00	    0.06	 -689.06	    0.00
    161.2500	  177.00	    0.06	 -706.06	    0.00
    161.3000	  178.00	    0.06	 -705.06	    0.00
    161.3500	  190.00	    0.06	 -693.06	    0.00
    161.4000	  160.00	    0.06	 -723.06	    0.00
    161.4500	  173.00	    0.06	 -710.06	    0.00
    161.5000	  191.00	    0.05	 -692.05	    0.00
    161.5500	  161.00	    0.05	 -722.05	    0.00
    161.6000	  181.00	    0.05	 -702.05	    0.00
    161.6500	  152.00	    0.05	 -731.05	    0.00
    161.7000	  195.00	    0.05	 -688.05	    0.00
    161.7500	  171.00	    0.05	 -712.05	    0.00
    161.8000	  188.00	    0.05	 -695.05	    0.00
    161.8500	  164.00	    0.05	 -719.05	    0.00
    161.9000	  185.00	    0.05	 -698.05	    0.00
    161.9500	  173.00	    0.05	 -710.05	    0.00
    162.0000	  162.00	    0.05	 -721.05	    0.00
    162.0500	  166.00	    0.04	 -717.04	    0.00
    162.1000	  201.00	    0.04	 -682.04	    0.00
    162.1500	  173.00	    0.04	 -710.04	    0.00
    162.2000	  172.00	    0.04	 -711.04	    0.00
    162.2500	  181.00	    0.04	 -702.04	    0.00
    162.3000	  159.00	    0.04	 -724.04	    0.00
    162.3500	  185.00	    0.04	 -698.04	    0.00
    162.4000	  170.00	    0.04	 -713.04	    0.00
    162.4500	  200.00	    0.04	 -683.04	    0.00
    162.5000	  196.00	    0.04	 -687.04	    0.00
    162.5500	  176.00	    0.04	 -707.04	    0.00
    162.6000	  197.00	    0.04	 -686.04	    0.00
    162.6500	  176.00	    0.04	 -707.04	    0.00
    162.7000	  181.00	    0.04	 -702.04	    0.00
    162.7500	  176.00	    0.04	 -707.04	    0.00
    162.8000	  184.00	    0.04	 -699.04	    0.00
    162.8500	  179.00	    0.03	 -704.03	    0.00
    162.9000	  165.00	    0.03	 -718.03	    0.00
    162.9500	  146.00	    0.03	 -737.03	    0.00
    163.0000	  165.00	    0.03	 -718.03	    0.00
    163.0500	  151.00	    0.03	 -732.03	    0.00
    163.1000	  164.00	    0.03	 -719.03	    0.00
    163.1500	  179.00	    0.03	 -704.03	    0.00
    163.2000	  186.00	    0.03	 -697.03	    0.00
    163.2500	  182.00	    0.03	 -701.03	    0.00
    163.3000	  168.00	    0.03	 -715.03	    0.00
    163.3500	  193.00	    0.03	 -690.03	    0.00
    163.4000	  177.00	    0.03	 -706.03	    0.00
    163.4500	  180.00	    0.03	 -703.03	    0.00
    163.5000	  171.00	    0.03	 -712.03	    0.00
    163.5500	  207.00	    0.03	 -676.03	    0.00
    163.6000	  180.00	    0.03	 -703.03	    0.00
    163.6500	  159.00	    0.00	 -724.00	    0.00
    163.7000	  165.00	    0.00	 -718.00	    0.00
    163.7500	  178.00	    0.00	 -705.00	    0.00
    163.8000	  150.00	    0.00	 -733.00	    0.00
    163.8500	  177.00	    0.00	 -706.00	    0.00
    163.9000	  174.00	    0.00	 -709.00	    0.00
    163.9500	  180.00	    0.00	 -703.00	    0.00
    164.0000	  184.00	    0.00	 -699.00	    0.00
    164.0500	  166.00	    0.00	 -717.00	    0.00
    164.1000	  182.00	    0.00	 -701.00	    0.00
    164.1500	  188.00	    0.00	 -695.00	    0.00
    164.2000	  186.00	    0.00	 -697.00	    0.00
    164.2500	  152.00	    0.00	 -731.00	    0.00
    164.3000	  200.00	    0.00	 -683.00	    0.00
    164.3500	  177.00	    0.00	 -706.00	    0.00
    164.4000	  202.00	    0.00	 -681.00	    0.00
    164.4500	  178.00	    0.00	 -705.00	    0.00
    164.5000	  153.00	    0.00	 -730.00	    0.00
    164.5500	  197.00	    0.00	 -686.00	    0.00
    164.6000	  153.00	    0.00	 -730.00	    0.00
    164.6500	  173.00	    0.00	 -710.00	    0.00
    164.7000	  187.00	    0.00	 -696.00	    0.00
    164.7500	  175.00	    0.00	 -708.00	    0.00
    164.8000	  168.00	    0.00	 -715.00	    0.00
    164.8500	  109.00	    0.00	 -883.00	    0.00
     22.1375	        	        	        	        	       0	(  1  0  0)	  0  1 :  1
     31.5083	        	        	        	        	       0	(  1  1  0)	  0  1 :  1
     38.8448	        	        	        	        	       0	(  1  1  1)	  0  1 :  1
     45.1600	        	        	        	        	       0	(  2  0  0)	  0  1 :  1
     50.8456	        	        	        	        	       0	(  2  1  0)	  0  1 :  1
     56.1035	        	        	        	        	       0	(  2  1  1)	  0  1 :  1
     65.7789	        	        	        	        	       0	(  2  2  0)	  0  1 :  1
     70.3337	        	        	        	        	       0	(  2  2  1)	  0  1 :  1
     70.3337	        	        	        	        	       0	(  3  0  0)	  0  1 :  1
     74.7623	        	        	        	        	       0	(  3  1  0)	  0  1 :  1
     79.0993	        	        	        	        	       0	(  3  1  1)	  0  1 :  1
     83.3739	        	        	        	        	       0	(  2  2  2)	  0  1 :  1
     87.6117	        	        	        	        	       0	(  3  2  0)	  0  1 :  1
     91.8364	        	        	        	        	       0	(  3  2  1)	  0  1 :  1
    100.3395	        	        	        	        	       0	(  4  0  0)	  0  1 :  1
    104.6669	        	        	        	        	       0	(  4  1  0)	  0  1 :  1
    104.6669	        	        	        	        	       0	(  3  2  2)	  0  1 :  1
    109.0817	        	        	        	        	       0	(  4  1  1)	  0  1 :  1
    109.0817	        	        	        	        	       0	(  3  3  0)	  0  1 :  1
    113.6178	        	        	        	        	       0	(  3  3  1)	  0  1 :  1
    118.3171	        	        	        	        	       0	(  4  2  0)	  0  1 :  1
    123.2346	        	        	        	        	       0	(  4  2  1)	  0  1 :  1
    128.4467	        	        	        	        	       0	(  3  3  2)	  0  1 :  1
    140.2840	        	        	        	        	       0	(  4  2  2)	  0  1 :  1
    147.4518	        	        	        	        	       0	(  5  0  0)	  0  1 :  1
    147.4518	        	        	        	        	       0	(  4  3  0)	  0  1 :  1
    156.4421	        	        	        	        	       0	(  4  3  1)	  0  1 :  1
    156.4421	        	        	        	        	       0	(  5  1  0)	  0  1 :  1
